# Wavelength(Å) I_cont(erg/s/cm2/Å/sr) I_abs(erg/s/cm2/Å/sr)
4846.4949 6.5050e+14 4.8244e+14
4846.5097 6.5049e+14 4.8228e+14
4846.5245 6.5049e+14 4.8212e+14
4846.5394 6.5049e+14 4.8196e+14
4846.5542 6.5049e+14 4.8180e+14
4846.5690 6.5049e+14 4.8164e+14
4846.5838 6.5049e+14 4.8147e+14
4846.5986 6.5049e+14 4.8131e+14
4846.6134 6.5049e+14 4.8115e+14
4846.6282 6.5048e+14 4.8099e+14
4846.6430 6.5048e+14 4.8083e+14
4846.6579 6.5048e+14 4.8066e+14
4846.6727 6.5048e+14 4.8050e+14
4846.6875 6.5048e+14 4.8034e+14
4846.7023 6.5048e+14 4.8017e+14
4846.7171 6.5048e+14 4.8001e+14
4846.7319 6.5047e+14 4.7985e+14
4846.7467 6.5047e+14 4.7968e+14
4846.7615 6.5047e+14 4.7952e+14
4846.7764 6.5047e+14 4.7936e+14
4846.7912 6.5047e+14 4.7919e+14
4846.8060 6.5047e+14 4.7903e+14
4846.8208 6.5047e+14 4.7886e+14
4846.8356 6.5046e+14 4.7870e+14
4846.8504 6.5046e+14 4.7854e+14
4846.8652 6.5046e+14 4.7837e+14
4846.8800 6.5046e+14 4.7821e+14
4846.8949 6.5046e+14 4.7804e+14
4846.9097 6.5046e+14 4.7788e+14
4846.9245 6.5046e+14 4.7771e+14
4846.9393 6.5045e+14 4.7755e+14
4846.9541 6.5045e+14 4.7738e+14
4846.9689 6.5045e+14 4.7721e+14
4846.9837 6.5045e+14 4.7705e+14
4846.9985 6.5045e+14 4.7688e+14
4847.0134 6.5045e+14 4.7672e+14
4847.0282 6.5045e+14 4.7655e+14
4847.0430 6.5044e+14 4.7638e+14
4847.0578 6.5044e+14 4.7622e+14
4847.0726 6.5044e+14 4.7605e+14
4847.0874 6.5044e+14 4.7589e+14
4847.1022 6.5044e+14 4.7572e+14
4847.1170 6.5044e+14 4.7555e+14
4847.1319 6.5044e+14 4.7538e+14
4847.1467 6.5044e+14 4.7522e+14
4847.1615 6.5043e+14 4.7505e+14
4847.1763 6.5043e+14 4.7488e+14
4847.1911 6.5043e+14 4.7471e+14
4847.2059 6.5043e+14 4.7455e+14
4847.2207 6.5043e+14 4.7438e+14
4847.2355 6.5043e+14 4.7421e+14
4847.2504 6.5043e+14 4.7404e+14
4847.2652 6.5042e+14 4.7387e+14
4847.2800 6.5042e+14 4.7371e+14
4847.2948 6.5042e+14 4.7354e+14
4847.3096 6.5042e+14 4.7337e+14
4847.3244 6.5042e+14 4.7320e+14
4847.3392 6.5042e+14 4.7303e+14
4847.3540 6.5042e+14 4.7286e+14
4847.3689 6.5041e+14 4.7269e+14
4847.3837 6.5041e+14 4.7252e+14
4847.3985 6.5041e+14 4.7235e+14
4847.4133 6.5041e+14 4.7218e+14
4847.4281 6.5041e+14 4.7201e+14
4847.4429 6.5041e+14 4.7184e+14
4847.4577 6.5041e+14 4.7167e+14
4847.4725 6.5040e+14 4.7150e+14
4847.4874 6.5040e+14 4.7133e+14
4847.5022 6.5040e+14 4.7116e+14
4847.5170 6.5040e+14 4.7099e+14
4847.5318 6.5040e+14 4.7082e+14
4847.5466 6.5040e+14 4.7065e+14
4847.5614 6.5040e+14 4.7048e+14
4847.5762 6.5039e+14 4.7031e+14
4847.5910 6.5039e+14 4.7014e+14
4847.6059 6.5039e+14 4.6996e+14
4847.6207 6.5039e+14 4.6979e+14
4847.6355 6.5039e+14 4.6962e+14
4847.6503 6.5039e+14 4.6945e+14
4847.6651 6.5039e+14 4.6928e+14
4847.6799 6.5039e+14 4.6910e+14
4847.6947 6.5038e+14 4.6893e+14
4847.7095 6.5038e+14 4.6876e+14
4847.7244 6.5038e+14 4.6859e+14
4847.7392 6.5038e+14 4.6841e+14
4847.7540 6.5038e+14 4.6824e+14
4847.7688 6.5038e+14 4.6807e+14
4847.7836 6.5038e+14 4.6790e+14
4847.7984 6.5037e+14 4.6772e+14
4847.8132 6.5037e+14 4.6755e+14
4847.8280 6.5037e+14 4.6738e+14
4847.8429 6.5037e+14 4.6720e+14
4847.8577 6.5037e+14 4.6703e+14
4847.8725 6.5037e+14 4.6685e+14
4847.8873 6.5037e+14 4.6668e+14
4847.9021 6.5036e+14 4.6651e+14
4847.9169 6.5036e+14 4.6633e+14
4847.9317 6.5036e+14 4.6616e+14
4847.9465 6.5036e+14 4.6598e+14
4847.9614 6.5036e+14 4.6581e+14
4847.9762 6.5036e+14 4.6563e+14
4847.9910 6.5036e+14 4.6546e+14
4848.0058 6.5035e+14 4.6528e+14
4848.0206 6.5035e+14 4.6511e+14
4848.0354 6.5035e+14 4.6493e+14
4848.0502 6.5035e+14 4.6476e+14
4848.0650 6.5035e+14 4.6458e+14
4848.0799 6.5035e+14 4.6441e+14
4848.0947 6.5035e+14 4.6423e+14
4848.1095 6.5034e+14 4.6405e+14
4848.1243 6.5034e+14 4.6388e+14
4848.1391 6.5034e+14 4.6370e+14
4848.1539 6.5034e+14 4.6353e+14
4848.1687 6.5034e+14 4.6335e+14
4848.1835 6.5034e+14 4.6317e+14
4848.1984 6.5034e+14 4.6300e+14
4848.2132 6.5034e+14 4.6282e+14
4848.2280 6.5033e+14 4.6264e+14
4848.2428 6.5033e+14 4.6247e+14
4848.2576 6.5033e+14 4.6229e+14
4848.2724 6.5033e+14 4.6211e+14
4848.2872 6.5033e+14 4.6193e+14
4848.3020 6.5033e+14 4.6176e+14
4848.3169 6.5033e+14 4.6158e+14
4848.3317 6.5032e+14 4.6140e+14
4848.3465 6.5032e+14 4.6122e+14
4848.3613 6.5032e+14 4.6104e+14
4848.3761 6.5032e+14 4.6087e+14
4848.3909 6.5032e+14 4.6069e+14
4848.4057 6.5032e+14 4.6051e+14
4848.4205 6.5032e+14 4.6033e+14
4848.4354 6.5031e+14 4.6015e+14
4848.4502 6.5031e+14 4.5997e+14
4848.4650 6.5031e+14 4.5979e+14
4848.4798 6.5031e+14 4.5962e+14
4848.4946 6.5031e+14 4.5944e+14
4848.5094 6.5031e+14 4.5926e+14
4848.5242 6.5031e+14 4.5908e+14
4848.5390 6.5030e+14 4.5890e+14
4848.5539 6.5030e+14 4.5872e+14
4848.5687 6.5030e+14 4.5854e+14
4848.5835 6.5030e+14 4.5836e+14
4848.5983 6.5030e+14 4.5818e+14
4848.6131 6.5030e+14 4.5800e+14
4848.6279 6.5030e+14 4.5782e+14
4848.6427 6.5029e+14 4.5764e+14
4848.6575 6.5029e+14 4.5746e+14
4848.6724 6.5029e+14 4.5728e+14
4848.6872 6.5029e+14 4.5710e+14
4848.7020 6.5029e+14 4.5691e+14
4848.7168 6.5029e+14 4.5673e+14
4848.7316 6.5029e+14 4.5655e+14
4848.7464 6.5029e+14 4.5637e+14
4848.7612 6.5028e+14 4.5619e+14
4848.7760 6.5028e+14 4.5601e+14
4848.7909 6.5028e+14 4.5583e+14
4848.8057 6.5028e+14 4.5565e+14
4848.8205 6.5028e+14 4.5546e+14
4848.8353 6.5028e+14 4.5528e+14
4848.8501 6.5028e+14 4.5510e+14
4848.8649 6.5027e+14 4.5492e+14
4848.8797 6.5027e+14 4.5474e+14
4848.8945 6.5027e+14 4.5455e+14
4848.9094 6.5027e+14 4.5437e+14
4848.9242 6.5027e+14 4.5419e+14
4848.9390 6.5027e+14 4.5400e+14
4848.9538 6.5027e+14 4.5382e+14
4848.9686 6.5026e+14 4.5364e+14
4848.9834 6.5026e+14 4.5346e+14
4848.9982 6.5026e+14 4.5327e+14
4849.0130 6.5026e+14 4.5309e+14
4849.0279 6.5026e+14 4.5291e+14
4849.0427 6.5026e+14 4.5272e+14
4849.0575 6.5026e+14 4.5254e+14
4849.0723 6.5025e+14 4.5236e+14
4849.0871 6.5025e+14 4.5217e+14
4849.1019 6.5025e+14 4.5199e+14
4849.1167 6.5025e+14 4.5180e+14
4849.1315 6.5025e+14 4.5162e+14
4849.1464 6.5025e+14 4.5143e+14
4849.1612 6.5025e+14 4.5125e+14
4849.1760 6.5025e+14 4.5107e+14
4849.1908 6.5024e+14 4.5088e+14
4849.2056 6.5024e+14 4.5070e+14
4849.2204 6.5024e+14 4.5051e+14
4849.2352 6.5024e+14 4.5033e+14
4849.2500 6.5024e+14 4.5014e+14
4849.2649 6.5024e+14 4.4996e+14
4849.2797 6.5024e+14 4.4977e+14
4849.2945 6.5023e+14 4.4959e+14
4849.3093 6.5023e+14 4.4940e+14
4849.3241 6.5023e+14 4.4921e+14
4849.3389 6.5023e+14 4.4903e+14
4849.3537 6.5023e+14 4.4884e+14
4849.3685 6.5023e+14 4.4866e+14
4849.3834 6.5023e+14 4.4847e+14
4849.3982 6.5022e+14 4.4828e+14
4849.4130 6.5022e+14 4.4810e+14
4849.4278 6.5022e+14 4.4791e+14
4849.4426 6.5022e+14 4.4773e+14
4849.4574 6.5022e+14 4.4754e+14
4849.4722 6.5022e+14 4.4735e+14
4849.4870 6.5022e+14 4.4717e+14
4849.5019 6.5021e+14 4.4698e+14
4849.5167 6.5021e+14 4.4679e+14
4849.5315 6.5021e+14 4.4661e+14
4849.5463 6.5021e+14 4.4642e+14
4849.5611 6.5021e+14 4.4623e+14
4849.5759 6.5021e+14 4.4604e+14
4849.5907 6.5021e+14 4.4586e+14
4849.6055 6.5020e+14 4.4567e+14
4849.6204 6.5020e+14 4.4548e+14
4849.6352 6.5020e+14 4.4529e+14
4849.6500 6.5020e+14 4.4511e+14
4849.6648 6.5020e+14 4.4492e+14
4849.6796 6.5020e+14 4.4473e+14
4849.6944 6.5020e+14 4.4454e+14
4849.7092 6.5019e+14 4.4435e+14
4849.7240 6.5019e+14 4.4416e+14
4849.7389 6.5019e+14 4.4398e+14
4849.7537 6.5019e+14 4.4379e+14
4849.7685 6.5019e+14 4.4360e+14
4849.7833 6.5019e+14 4.4341e+14
4849.7981 6.5019e+14 4.4322e+14
4849.8129 6.5019e+14 4.4303e+14
4849.8277 6.5018e+14 4.4284e+14
4849.8425 6.5018e+14 4.4265e+14
4849.8574 6.5018e+14 4.4247e+14
4849.8722 6.5018e+14 4.4228e+14
4849.8870 6.5018e+14 4.4209e+14
4849.9018 6.5018e+14 4.4190e+14
4849.9166 6.5018e+14 4.4171e+14
4849.9314 6.5017e+14 4.4152e+14
4849.9462 6.5017e+14 4.4133e+14
4849.9610 6.5017e+14 4.4114e+14
4849.9759 6.5017e+14 4.4095e+14
4849.9907 6.5017e+14 4.4076e+14
4850.0055 6.5017e+14 4.4057e+14
4850.0203 6.5017e+14 4.4038e+14
4850.0351 6.5016e+14 4.4019e+14
4850.0499 6.5016e+14 4.4000e+14
4850.0647 6.5016e+14 4.3981e+14
4850.0795 6.5016e+14 4.3962e+14
4850.0944 6.5016e+14 4.3943e+14
4850.1092 6.5016e+14 4.3924e+14
4850.1240 6.5016e+14 4.3905e+14
4850.1388 6.5015e+14 4.3885e+14
4850.1536 6.5015e+14 4.3866e+14
4850.1684 6.5015e+14 4.3847e+14
4850.1832 6.5015e+14 4.3828e+14
4850.1980 6.5015e+14 4.3809e+14
4850.2129 6.5015e+14 4.3790e+14
4850.2277 6.5015e+14 4.3771e+14
4850.2425 6.5014e+14 4.3752e+14
4850.2573 6.5014e+14 4.3733e+14
4850.2721 6.5014e+14 4.3713e+14
4850.2869 6.5014e+14 4.3694e+14
4850.3017 6.5014e+14 4.3675e+14
4850.3165 6.5014e+14 4.3656e+14
4850.3314 6.5014e+14 4.3637e+14
4850.3462 6.5014e+14 4.3617e+14
4850.3610 6.5013e+14 4.3598e+14
4850.3758 6.5013e+14 4.3579e+14
4850.3906 6.5013e+14 4.3560e+14
4850.4054 6.5013e+14 4.3541e+14
4850.4202 6.5013e+14 4.3521e+14
4850.4350 6.5013e+14 4.3502e+14
4850.4499 6.5013e+14 4.3483e+14
4850.4647 6.5012e+14 4.3464e+14
4850.4795 6.5012e+14 4.3444e+14
4850.4943 6.5012e+14 4.3425e+14
4850.5091 6.5012e+14 4.3406e+14
4850.5239 6.5012e+14 4.3387e+14
4850.5387 6.5012e+14 4.3367e+14
4850.5535 6.5012e+14 4.3348e+14
4850.5684 6.5011e+14 4.3329e+14
4850.5832 6.5011e+14 4.3309e+14
4850.5980 6.5011e+14 4.3290e+14
4850.6128 6.5011e+14 4.3271e+14
4850.6276 6.5011e+14 4.3251e+14
4850.6424 6.5011e+14 4.3232e+14
4850.6572 6.5011e+14 4.3213e+14
4850.6720 6.5010e+14 4.3193e+14
4850.6869 6.5010e+14 4.3174e+14
4850.7017 6.5010e+14 4.3155e+14
4850.7165 6.5010e+14 4.3135e+14
4850.7313 6.5010e+14 4.3116e+14
4850.7461 6.5010e+14 4.3096e+14
4850.7609 6.5010e+14 4.3077e+14
4850.7757 6.5009e+14 4.3058e+14
4850.7905 6.5009e+14 4.3038e+14
4850.8054 6.5009e+14 4.3019e+14
4850.8202 6.5009e+14 4.2999e+14
4850.8350 6.5009e+14 4.2980e+14
4850.8498 6.5009e+14 4.2961e+14
4850.8646 6.5009e+14 4.2941e+14
4850.8794 6.5009e+14 4.2922e+14
4850.8942 6.5008e+14 4.2902e+14
4850.9090 6.5008e+14 4.2883e+14
4850.9239 6.5008e+14 4.2863e+14
4850.9387 6.5008e+14 4.2844e+14
4850.9535 6.5008e+14 4.2824e+14
4850.9683 6.5008e+14 4.2805e+14
4850.9831 6.5008e+14 4.2786e+14
4850.9979 6.5007e+14 4.2766e+14
4851.0127 6.5007e+14 4.2747e+14
4851.0275 6.5007e+14 4.2727e+14
4851.0424 6.5007e+14 4.2708e+14
4851.0572 6.5007e+14 4.2688e+14
4851.0720 6.5007e+14 4.2669e+14
4851.0868 6.5007e+14 4.2649e+14
4851.1016 6.5006e+14 4.2630e+14
4851.1164 6.5006e+14 4.2610e+14
4851.1312 6.5006e+14 4.2590e+14
4851.1460 6.5006e+14 4.2571e+14
4851.1609 6.5006e+14 4.2551e+14
4851.1757 6.5006e+14 4.2532e+14
4851.1905 6.5006e+14 4.2512e+14
4851.2053 6.5005e+14 4.2493e+14
4851.2201 6.5005e+14 4.2473e+14
4851.2349 6.5005e+14 4.2454e+14
4851.2497 6.5005e+14 4.2434e+14
4851.2645 6.5005e+14 4.2415e+14
4851.2794 6.5005e+14 4.2395e+14
4851.2942 6.5005e+14 4.2375e+14
4851.3090 6.5004e+14 4.2356e+14
4851.3238 6.5004e+14 4.2336e+14
4851.3386 6.5004e+14 4.2317e+14
4851.3534 6.5004e+14 4.2297e+14
4851.3682 6.5004e+14 4.2277e+14
4851.3830 6.5004e+14 4.2258e+14
4851.3979 6.5004e+14 4.2238e+14
4851.4127 6.5004e+14 4.2219e+14
4851.4275 6.5003e+14 4.2199e+14
4851.4423 6.5003e+14 4.2179e+14
4851.4571 6.5003e+14 4.2160e+14
4851.4719 6.5003e+14 4.2140e+14
4851.4867 6.5003e+14 4.2121e+14
4851.5015 6.5003e+14 4.2101e+14
4851.5164 6.5003e+14 4.2081e+14
4851.5312 6.5002e+14 4.2062e+14
4851.5460 6.5002e+14 4.2042e+14
4851.5608 6.5002e+14 4.2022e+14
4851.5756 6.5002e+14 4.2003e+14
4851.5904 6.5002e+14 4.1983e+14
4851.6052 6.5002e+14 4.1964e+14
4851.6200 6.5002e+14 4.1944e+14
4851.6349 6.5001e+14 4.1924e+14
4851.6497 6.5001e+14 4.1905e+14
4851.6645 6.5001e+14 4.1885e+14
4851.6793 6.5001e+14 4.1865e+14
4851.6941 6.5001e+14 4.1846e+14
4851.7089 6.5001e+14 4.1826e+14
4851.7237 6.5001e+14 4.1806e+14
4851.7385 6.5000e+14 4.1787e+14
4851.7534 6.5000e+14 4.1767e+14
4851.7682 6.5000e+14 4.1747e+14
4851.7830 6.5000e+14 4.1728e+14
4851.7978 6.5000e+14 4.1708e+14
4851.8126 6.5000e+14 4.1688e+14
4851.8274 6.5000e+14 4.1669e+14
4851.8422 6.4999e+14 4.1649e+14
4851.8570 6.4999e+14 4.1629e+14
4851.8719 6.4999e+14 4.1610e+14
4851.8867 6.4999e+14 4.1590e+14
4851.9015 6.4999e+14 4.1570e+14
4851.9163 6.4999e+14 4.1551e+14
4851.9311 6.4999e+14 4.1531e+14
4851.9459 6.4998e+14 4.1511e+14
4851.9607 6.4998e+14 4.1491e+14
4851.9755 6.4998e+14 4.1472e+14
4851.9904 6.4998e+14 4.1452e+14
4852.0052 6.4998e+14 4.1432e+14
4852.0200 6.4998e+14 4.1413e+14
4852.0348 6.4998e+14 4.1393e+14
4852.0496 6.4998e+14 4.1373e+14
4852.0644 6.4997e+14 4.1354e+14
4852.0792 6.4997e+14 4.1334e+14
4852.0940 6.4997e+14 4.1314e+14
4852.1089 6.4997e+14 4.1295e+14
4852.1237 6.4997e+14 4.1275e+14
4852.1385 6.4997e+14 4.1255e+14
4852.1533 6.4997e+14 4.1236e+14
4852.1681 6.4996e+14 4.1216e+14
4852.1829 6.4996e+14 4.1196e+14
4852.1977 6.4996e+14 4.1176e+14
4852.2125 6.4996e+14 4.1157e+14
4852.2274 6.4996e+14 4.1137e+14
4852.2422 6.4996e+14 4.1117e+14
4852.2570 6.4996e+14 4.1098e+14
4852.2718 6.4995e+14 4.1078e+14
4852.2866 6.4995e+14 4.1058e+14
4852.3014 6.4995e+14 4.1039e+14
4852.3162 6.4995e+14 4.1019e+14
4852.3310 6.4995e+14 4.0999e+14
4852.3459 6.4995e+14 4.0980e+14
4852.3607 6.4995e+14 4.0960e+14
4852.3755 6.4994e+14 4.0940e+14
4852.3903 6.4994e+14 4.0921e+14
4852.4051 6.4994e+14 4.0901e+14
4852.4199 6.4994e+14 4.0881e+14
4852.4347 6.4994e+14 4.0862e+14
4852.4495 6.4994e+14 4.0842e+14
4852.4644 6.4994e+14 4.0822e+14
4852.4792 6.4993e+14 4.0803e+14
4852.4940 6.4993e+14 4.0783e+14
4852.5088 6.4993e+14 4.0763e+14
4852.5236 6.4993e+14 4.0744e+14
4852.5384 6.4993e+14 4.0724e+14
4852.5532 6.4993e+14 4.0704e+14
4852.5680 6.4993e+14 4.0685e+14
4852.5829 6.4993e+14 4.0665e+14
4852.5977 6.4992e+14 4.0645e+14
4852.6125 6.4992e+14 4.0626e+14
4852.6273 6.4992e+14 4.0606e+14
4852.6421 6.4992e+14 4.0586e+14
4852.6569 6.4992e+14 4.0567e+14
4852.6717 6.4992e+14 4.0547e+14
4852.6865 6.4992e+14 4.0527e+14
4852.7014 6.4991e+14 4.0508e+14
4852.7162 6.4991e+14 4.0488e+14
4852.7310 6.4991e+14 4.0469e+14
4852.7458 6.4991e+14 4.0449e+14
4852.7606 6.4991e+14 4.0429e+14
4852.7754 6.4991e+14 4.0410e+14
4852.7902 6.4991e+14 4.0390e+14
4852.8050 6.4990e+14 4.0370e+14
4852.8199 6.4990e+14 4.0351e+14
4852.8347 6.4990e+14 4.0331e+14
4852.8495 6.4990e+14 4.0312e+14
4852.8643 6.4990e+14 4.0292e+14
4852.8791 6.4990e+14 4.0273e+14
4852.8939 6.4990e+14 4.0253e+14
4852.9087 6.4989e+14 4.0233e+14
4852.9235 6.4989e+14 4.0214e+14
4852.9384 6.4989e+14 4.0194e+14
4852.9532 6.4989e+14 4.0175e+14
4852.9680 6.4989e+14 4.0155e+14
4852.9828 6.4989e+14 4.0136e+14
4852.9976 6.4989e+14 4.0116e+14
4853.0124 6.4988e+14 4.0096e+14
4853.0272 6.4988e+14 4.0077e+14
4853.0420 6.4988e+14 4.0057e+14
4853.0569 6.4988e+14 4.0038e+14
4853.0717 6.4988e+14 4.0018e+14
4853.0865 6.4988e+14 3.9999e+14
4853.1013 6.4988e+14 3.9979e+14
4853.1161 6.4987e+14 3.9960e+14
4853.1309 6.4987e+14 3.9940e+14
4853.1457 6.4987e+14 3.9921e+14
4853.1605 6.4987e+14 3.9901e+14
4853.1754 6.4987e+14 3.9882e+14
4853.1902 6.4987e+14 3.9862e+14
4853.2050 6.4987e+14 3.9843e+14
4853.2198 6.4987e+14 3.9824e+14
4853.2346 6.4986e+14 3.9804e+14
4853.2494 6.4986e+14 3.9785e+14
4853.2642 6.4986e+14 3.9765e+14
4853.2790 6.4986e+14 3.9746e+14
4853.2939 6.4986e+14 3.9726e+14
4853.3087 6.4986e+14 3.9707e+14
4853.3235 6.4986e+14 3.9687e+14
4853.3383 6.4985e+14 3.9668e+14
4853.3531 6.4985e+14 3.9649e+14
4853.3679 6.4985e+14 3.9629e+14
4853.3827 6.4985e+14 3.9610e+14
4853.3975 6.4985e+14 3.9591e+14
4853.4124 6.4985e+14 3.9571e+14
4853.4272 6.4985e+14 3.9552e+14
4853.4420 6.4984e+14 3.9532e+14
4853.4568 6.4984e+14 3.9513e+14
4853.4716 6.4984e+14 3.9494e+14
4853.4864 6.4984e+14 3.9474e+14
4853.5012 6.4984e+14 3.9455e+14
4853.5160 6.4984e+14 3.9436e+14
4853.5309 6.4984e+14 3.9417e+14
4853.5457 6.4983e+14 3.9397e+14
4853.5605 6.4983e+14 3.9378e+14
4853.5753 6.4983e+14 3.9359e+14
4853.5901 6.4983e+14 3.9339e+14
4853.6049 6.4983e+14 3.9320e+14
4853.6197 6.4983e+14 3.9301e+14
4853.6345 6.4983e+14 3.9282e+14
4853.6494 6.4982e+14 3.9262e+14
4853.6642 6.4982e+14 3.9243e+14
4853.6790 6.4982e+14 3.9224e+14
4853.6938 6.4982e+14 3.9205e+14
4853.7086 6.4982e+14 3.9186e+14
4853.7234 6.4982e+14 3.9166e+14
4853.7382 6.4982e+14 3.9147e+14
4853.7530 6.4981e+14 3.9128e+14
4853.7679 6.4981e+14 3.9109e+14
4853.7827 6.4981e+14 3.9090e+14
4853.7975 6.4981e+14 3.9071e+14
4853.8123 6.4981e+14 3.9052e+14
4853.8271 6.4981e+14 3.9032e+14
4853.8419 6.4981e+14 3.9013e+14
4853.8567 6.4981e+14 3.8994e+14
4853.8715 6.4980e+14 3.8975e+14
4853.8864 6.4980e+14 3.8956e+14
4853.9012 6.4980e+14 3.8937e+14
4853.9160 6.4980e+14 3.8918e+14
4853.9308 6.4980e+14 3.8899e+14
4853.9456 6.4980e+14 3.8880e+14
4853.9604 6.4980e+14 3.8861e+14
4853.9752 6.4979e+14 3.8842e+14
4853.9900 6.4979e+14 3.8823e+14
4854.0049 6.4979e+14 3.8804e+14
4854.0197 6.4979e+14 3.8785e+14
4854.0345 6.4979e+14 3.8766e+14
4854.0493 6.4979e+14 3.8747e+14
4854.0641 6.4979e+14 3.8728e+14
4854.0789 6.4978e+14 3.8709e+14
4854.0937 6.4978e+14 3.8690e+14
4854.1085 6.4978e+14 3.8672e+14
4854.1234 6.4978e+14 3.8653e+14
4854.1382 6.4978e+14 3.8634e+14
4854.1530 6.4978e+14 3.8615e+14
4854.1678 6.4978e+14 3.8596e+14
4854.1826 6.4977e+14 3.8577e+14
4854.1974 6.4977e+14 3.8558e+14
4854.2122 6.4977e+14 3.8540e+14
4854.2270 6.4977e+14 3.8521e+14
4854.2419 6.4977e+14 3.8502e+14
4854.2567 6.4977e+14 3.8483e+14
4854.2715 6.4977e+14 3.8465e+14
4854.2863 6.4976e+14 3.8446e+14
4854.3011 6.4976e+14 3.8427e+14
4854.3159 6.4976e+14 3.8409e+14
4854.3307 6.4976e+14 3.8390e+14
4854.3455 6.4976e+14 3.8371e+14
4854.3604 6.4976e+14 3.8352e+14
4854.3752 6.4976e+14 3.8334e+14
4854.3900 6.4976e+14 3.8315e+14
4854.4048 6.4975e+14 3.8297e+14
4854.4196 6.4975e+14 3.8278e+14
4854.4344 6.4975e+14 3.8259e+14
4854.4492 6.4975e+14 3.8241e+14
4854.4640 6.4975e+14 3.8222e+14
4854.4789 6.4975e+14 3.8204e+14
4854.4937 6.4975e+14 3.8185e+14
4854.5085 6.4974e+14 3.8167e+14
4854.5233 6.4974e+14 3.8148e+14
4854.5381 6.4974e+14 3.8130e+14
4854.5529 6.4974e+14 3.8111e+14
4854.5677 6.4974e+14 3.8093e+14
4854.5825 6.4974e+14 3.8074e+14
4854.5973 6.4974e+14 3.8056e+14
4854.6122 6.4973e+14 3.8038e+14
4854.6270 6.4973e+14 3.8019e+14
4854.6418 6.4973e+14 3.8001e+14
4854.6566 6.4973e+14 3.7983e+14
4854.6714 6.4973e+14 3.7964e+14
4854.6862 6.4973e+14 3.7946e+14
4854.7010 6.4973e+14 3.7928e+14
4854.7158 6.4972e+14 3.7909e+14
4854.7307 6.4972e+14 3.7891e+14
4854.7455 6.4972e+14 3.7873e+14
4854.7603 6.4972e+14 3.7855e+14
4854.7751 6.4972e+14 3.7836e+14
4854.7899 6.4972e+14 3.7818e+14
4854.8047 6.4972e+14 3.7800e+14
4854.8195 6.4971e+14 3.7782e+14
4854.8343 6.4971e+14 3.7764e+14
4854.8492 6.4971e+14 3.7746e+14
4854.8640 6.4971e+14 3.7728e+14
4854.8788 6.4971e+14 3.7710e+14
4854.8936 6.4971e+14 3.7691e+14
4854.9084 6.4971e+14 3.7673e+14
4854.9232 6.4970e+14 3.7655e+14
4854.9380 6.4970e+14 3.7637e+14
4854.9528 6.4970e+14 3.7619e+14
4854.9677 6.4970e+14 3.7601e+14
4854.9825 6.4970e+14 3.7584e+14
4854.9973 6.4970e+14 3.7566e+14
4855.0121 6.4970e+14 3.7548e+14
4855.0269 6.4970e+14 3.7530e+14
4855.0417 6.4969e+14 3.7512e+14
4855.0565 6.4969e+14 3.7494e+14
4855.0713 6.4969e+14 3.7476e+14
4855.0862 6.4969e+14 3.7458e+14
4855.1010 6.4969e+14 3.7441e+14
4855.1158 6.4969e+14 3.7423e+14
4855.1306 6.4969e+14 3.7405e+14
4855.1454 6.4968e+14 3.7387e+14
4855.1602 6.4968e+14 3.7370e+14
4855.1750 6.4968e+14 3.7352e+14
4855.1898 6.4968e+14 3.7334e+14
4855.2047 6.4968e+14 3.7317e+14
4855.2195 6.4968e+14 3.7299e+14
4855.2343 6.4968e+14 3.7282e+14
4855.2491 6.4967e+14 3.7264e+14
4855.2639 6.4967e+14 3.7246e+14
4855.2787 6.4967e+14 3.7229e+14
4855.2935 6.4967e+14 3.7211e+14
4855.3083 6.4967e+14 3.7194e+14
4855.3232 6.4967e+14 3.7176e+14
4855.3380 6.4967e+14 3.7159e+14
4855.3528 6.4966e+14 3.7142e+14
4855.3676 6.4966e+14 3.7124e+14
4855.3824 6.4966e+14 3.7107e+14
4855.3972 6.4966e+14 3.7089e+14
4855.4120 6.4966e+14 3.7072e+14
4855.4268 6.4966e+14 3.7055e+14
4855.4417 6.4966e+14 3.7037e+14
4855.4565 6.4965e+14 3.7020e+14
4855.4713 6.4965e+14 3.7003e+14
4855.4861 6.4965e+14 3.6986e+14
4855.5009 6.4965e+14 3.6969e+14
4855.5157 6.4965e+14 3.6951e+14
4855.5305 6.4965e+14 3.6934e+14
4855.5453 6.4965e+14 3.6917e+14
4855.5602 6.4964e+14 3.6900e+14
4855.5750 6.4964e+14 3.6883e+14
4855.5898 6.4964e+14 3.6866e+14
4855.6046 6.4964e+14 3.6849e+14
4855.6194 6.4964e+14 3.6832e+14
4855.6342 6.4964e+14 3.6815e+14
4855.6490 6.4964e+14 3.6798e+14
4855.6638 6.4963e+14 3.6781e+14
4855.6787 6.4963e+14 3.6764e+14
4855.6935 6.4963e+14 3.6747e+14
4855.7083 6.4963e+14 3.6730e+14
4855.7231 6.4963e+14 3.6714e+14
4855.7379 6.4963e+14 3.6697e+14
4855.7527 6.4963e+14 3.6680e+14
4855.7675 6.4963e+14 3.6663e+14
4855.7823 6.4962e+14 3.6646e+14
4855.7972 6.4962e+14 3.6630e+14
4855.8120 6.4962e+14 3.6613e+14
4855.8268 6.4962e+14 3.6596e+14
4855.8416 6.4962e+14 3.6580e+14
4855.8564 6.4962e+14 3.6563e+14
4855.8712 6.4962e+14 3.6547e+14
4855.8860 6.4961e+14 3.6530e+14
4855.9008 6.4961e+14 3.6514e+14
4855.9157 6.4961e+14 3.6497e+14
4855.9305 6.4961e+14 3.6481e+14
4855.9453 6.4961e+14 3.6464e+14
4855.9601 6.4961e+14 3.6448e+14
4855.9749 6.4961e+14 3.6431e+14
4855.9897 6.4960e+14 3.6415e+14
4856.0045 6.4960e+14 3.6399e+14
4856.0193 6.4960e+14 3.6382e+14
4856.0342 6.4960e+14 3.6366e+14
4856.0490 6.4960e+14 3.6350e+14
4856.0638 6.4960e+14 3.6334e+14
4856.0786 6.4960e+14 3.6318e+14
4856.0934 6.4959e+14 3.6301e+14
4856.1082 6.4959e+14 3.6285e+14
4856.1230 6.4959e+14 3.6269e+14
4856.1378 6.4959e+14 3.6253e+14
4856.1527 6.4959e+14 3.6237e+14
4856.1675 6.4959e+14 3.6221e+14
4856.1823 6.4959e+14 3.6205e+14
4856.1971 6.4958e+14 3.6189e+14
4856.2119 6.4958e+14 3.6173e+14
4856.2267 6.4958e+14 3.6157e+14
4856.2415 6.4958e+14 3.6141e+14
4856.2563 6.4958e+14 3.6126e+14
4856.2712 6.4958e+14 3.6110e+14
4856.2860 6.4958e+14 3.6094e+14
4856.3008 6.4957e+14 3.6078e+14
4856.3156 6.4957e+14 3.6063e+14
4856.3304 6.4957e+14 3.6047e+14
4856.3452 6.4957e+14 3.6031e+14
4856.3600 6.4957e+14 3.6016e+14
4856.3748 6.4957e+14 3.6000e+14
4856.3897 6.4957e+14 3.5984e+14
4856.4045 6.4957e+14 3.5969e+14
4856.4193 6.4956e+14 3.5953e+14
4856.4341 6.4956e+14 3.5938e+14
4856.4489 6.4956e+14 3.5922e+14
4856.4637 6.4956e+14 3.5907e+14
4856.4785 6.4956e+14 3.5892e+14
4856.4933 6.4956e+14 3.5876e+14
4856.5082 6.4956e+14 3.5861e+14
4856.5230 6.4955e+14 3.5846e+14
4856.5378 6.4955e+14 3.5831e+14
4856.5526 6.4955e+14 3.5815e+14
4856.5674 6.4955e+14 3.5800e+14
4856.5822 6.4955e+14 3.5785e+14
4856.5970 6.4955e+14 3.5770e+14
4856.6118 6.4955e+14 3.5755e+14
4856.6267 6.4954e+14 3.5740e+14
4856.6415 6.4954e+14 3.5725e+14
4856.6563 6.4954e+14 3.5710e+14
4856.6711 6.4954e+14 3.5695e+14
4856.6859 6.4954e+14 3.5680e+14
4856.7007 6.4954e+14 3.5665e+14
4856.7155 6.4954e+14 3.5650e+14
4856.7303 6.4953e+14 3.5635e+14
4856.7452 6.4953e+14 3.5620e+14
4856.7600 6.4953e+14 3.5606e+14
4856.7748 6.4953e+14 3.5591e+14
4856.7896 6.4953e+14 3.5576e+14
4856.8044 6.4953e+14 3.5562e+14
4856.8192 6.4953e+14 3.5547e+14
4856.8340 6.4952e+14 3.5532e+14
4856.8488 6.4952e+14 3.5518e+14
4856.8637 6.4952e+14 3.5503e+14
4856.8785 6.4952e+14 3.5489e+14
4856.8933 6.4952e+14 3.5474e+14
4856.9081 6.4952e+14 3.5460e+14
4856.9229 6.4952e+14 3.5446e+14
4856.9377 6.4951e+14 3.5431e+14
4856.9525 6.4951e+14 3.5417e+14
4856.9673 6.4951e+14 3.5403e+14
4856.9822 6.4951e+14 3.5388e+14
4856.9970 6.4951e+14 3.5374e+14
4857.0118 6.4951e+14 3.5360e+14
4857.0266 6.4951e+14 3.5346e+14
4857.0414 6.4951e+14 3.5332e+14
4857.0562 6.4950e+14 3.5318e+14
4857.0710 6.4950e+14 3.5304e+14
4857.0858 6.4950e+14 3.5290e+14
4857.1007 6.4950e+14 3.5276e+14
4857.1155 6.4950e+14 3.5262e+14
4857.1303 6.4950e+14 3.5248e+14
4857.1451 6.4950e+14 3.5234e+14
4857.1599 6.4949e+14 3.5220e+14
4857.1747 6.4949e+14 3.5207e+14
4857.1895 6.4949e+14 3.5193e+14
4857.2043 6.4949e+14 3.5179e+14
4857.2192 6.4949e+14 3.5166e+14
4857.2340 6.4949e+14 3.5152e+14
4857.2488 6.4949e+14 3.5138e+14
4857.2636 6.4948e+14 3.5125e+14
4857.2784 6.4948e+14 3.5111e+14
4857.2932 6.4948e+14 3.5098e+14
4857.3080 6.4948e+14 3.5084e+14
4857.3228 6.4948e+14 3.5071e+14
4857.3377 6.4948e+14 3.5058e+14
4857.3525 6.4948e+14 3.5044e+14
4857.3673 6.4947e+14 3.5031e+14
4857.3821 6.4947e+14 3.5018e+14
4857.3969 6.4947e+14 3.5005e+14
4857.4117 6.4947e+14 3.4992e+14
4857.4265 6.4947e+14 3.4978e+14
4857.4413 6.4947e+14 3.4965e+14
4857.4562 6.4947e+14 3.4952e+14
4857.4710 6.4946e+14 3.4939e+14
4857.4858 6.4946e+14 3.4926e+14
4857.5006 6.4946e+14 3.4913e+14
4857.5154 6.4946e+14 3.4901e+14
4857.5302 6.4946e+14 3.4888e+14
4857.5450 6.4946e+14 3.4875e+14
4857.5598 6.4946e+14 3.4862e+14
4857.5747 6.4945e+14 3.4849e+14
4857.5895 6.4945e+14 3.4837e+14
4857.6043 6.4945e+14 3.4824e+14
4857.6191 6.4945e+14 3.4812e+14
4857.6339 6.4945e+14 3.4799e+14
4857.6487 6.4945e+14 3.4786e+14
4857.6635 6.4945e+14 3.4774e+14
4857.6783 6.4944e+14 3.4762e+14
4857.6932 6.4944e+14 3.4749e+14
4857.7080 6.4944e+14 3.4737e+14
4857.7228 6.4944e+14 3.4724e+14
4857.7376 6.4944e+14 3.4712e+14
4857.7524 6.4944e+14 3.4700e+14
4857.7672 6.4944e+14 3.4688e+14
4857.7820 6.4944e+14 3.4676e+14
4857.7968 6.4943e+14 3.4663e+14
4857.8117 6.4943e+14 3.4651e+14
4857.8265 6.4943e+14 3.4639e+14
4857.8413 6.4943e+14 3.4627e+14
4857.8561 6.4943e+14 3.4615e+14
4857.8709 6.4943e+14 3.4604e+14
4857.8857 6.4943e+14 3.4592e+14
4857.9005 6.4942e+14 3.4580e+14
4857.9153 6.4942e+14 3.4568e+14
4857.9302 6.4942e+14 3.4556e+14
4857.9450 6.4942e+14 3.4545e+14
4857.9598 6.4942e+14 3.4533e+14
4857.9746 6.4942e+14 3.4521e+14
4857.9894 6.4942e+14 3.4510e+14
4858.0042 6.4941e+14 3.4498e+14
4858.0190 6.4941e+14 3.4487e+14
4858.0338 6.4941e+14 3.4476e+14
4858.0487 6.4941e+14 3.4464e+14
4858.0635 6.4941e+14 3.4453e+14
4858.0783 6.4941e+14 3.4441e+14
4858.0931 6.4941e+14 3.4430e+14
4858.1079 6.4940e+14 3.4419e+14
4858.1227 6.4940e+14 3.4408e+14
4858.1375 6.4940e+14 3.4397e+14
4858.1523 6.4940e+14 3.4386e+14
4858.1672 6.4940e+14 3.4375e+14
4858.1820 6.4940e+14 3.4364e+14
4858.1968 6.4940e+14 3.4353e+14
4858.2116 6.4939e+14 3.4342e+14
4858.2264 6.4939e+14 3.4331e+14
4858.2412 6.4939e+14 3.4320e+14
4858.2560 6.4939e+14 3.4309e+14
4858.2708 6.4939e+14 3.4299e+14
4858.2857 6.4939e+14 3.4288e+14
4858.3005 6.4939e+14 3.4277e+14
4858.3153 6.4938e+14 3.4267e+14
4858.3301 6.4938e+14 3.4256e+14
4858.3449 6.4938e+14 3.4246e+14
4858.3597 6.4938e+14 3.4235e+14
4858.3745 6.4938e+14 3.4225e+14
4858.3893 6.4938e+14 3.4214e+14
4858.4042 6.4938e+14 3.4204e+14
4858.4190 6.4937e+14 3.4194e+14
4858.4338 6.4937e+14 3.4184e+14
4858.4486 6.4937e+14 3.4174e+14
4858.4634 6.4937e+14 3.4163e+14
4858.4782 6.4937e+14 3.4153e+14
4858.4930 6.4937e+14 3.4143e+14
4858.5078 6.4937e+14 3.4133e+14
4858.5227 6.4937e+14 3.4123e+14
4858.5375 6.4936e+14 3.4113e+14
4858.5523 6.4936e+14 3.4104e+14
4858.5671 6.4936e+14 3.4094e+14
4858.5819 6.4936e+14 3.4084e+14
4858.5967 6.4936e+14 3.4074e+14
4858.6115 6.4936e+14 3.4065e+14
4858.6263 6.4936e+14 3.4055e+14
4858.6412 6.4935e+14 3.4045e+14
4858.6560 6.4935e+14 3.4036e+14
4858.6708 6.4935e+14 3.4026e+14
4858.6856 6.4935e+14 3.4017e+14
4858.7004 6.4935e+14 3.4008e+14
4858.7152 6.4935e+14 3.3998e+14
4858.7300 6.4935e+14 3.3989e+14
4858.7448 6.4934e+14 3.3980e+14
4858.7597 6.4934e+14 3.3971e+14
4858.7745 6.4934e+14 3.3961e+14
4858.7893 6.4934e+14 3.3952e+14
4858.8041 6.4934e+14 3.3943e+14
4858.8189 6.4934e+14 3.3934e+14
4858.8337 6.4934e+14 3.3925e+14
4858.8485 6.4933e+14 3.3916e+14
4858.8633 6.4933e+14 3.3908e+14
4858.8782 6.4933e+14 3.3899e+14
4858.8930 6.4933e+14 3.3890e+14
4858.9078 6.4933e+14 3.3881e+14
4858.9226 6.4933e+14 3.3873e+14
4858.9374 6.4933e+14 3.3864e+14
4858.9522 6.4932e+14 3.3856e+14
4858.9670 6.4932e+14 3.3847e+14
4858.9818 6.4932e+14 3.3839e+14
4858.9967 6.4932e+14 3.3830e+14
4859.0115 6.4932e+14 3.3822e+14
4859.0263 6.4932e+14 3.3813e+14
4859.0411 6.4932e+14 3.3805e+14
4859.0559 6.4931e+14 3.3797e+14
4859.0707 6.4931e+14 3.3789e+14
4859.0855 6.4931e+14 3.3781e+14
4859.1003 6.4931e+14 3.3773e+14
4859.1152 6.4931e+14 3.3765e+14
4859.1300 6.4931e+14 3.3757e+14
4859.1448 6.4931e+14 3.3749e+14
4859.1596 6.4930e+14 3.3741e+14
4859.1744 6.4930e+14 3.3733e+14
4859.1892 6.4930e+14 3.3725e+14
4859.2040 6.4930e+14 3.3718e+14
4859.2188 6.4930e+14 3.3710e+14
4859.2337 6.4930e+14 3.3702e+14
4859.2485 6.4930e+14 3.3695e+14
4859.2633 6.4930e+14 3.3687e+14
4859.2781 6.4929e+14 3.3680e+14
4859.2929 6.4929e+14 3.3672e+14
4859.3077 6.4929e+14 3.3665e+14
4859.3225 6.4929e+14 3.3658e+14
4859.3373 6.4929e+14 3.3650e+14
4859.3522 6.4929e+14 3.3643e+14
4859.3670 6.4929e+14 3.3636e+14
4859.3818 6.4928e+14 3.3629e+14
4859.3966 6.4928e+14 3.3622e+14
4859.4114 6.4928e+14 3.3615e+14
4859.4262 6.4928e+14 3.3608e+14
4859.4410 6.4928e+14 3.3601e+14
4859.4558 6.4928e+14 3.3594e+14
4859.4707 6.4928e+14 3.3587e+14
4859.4855 6.4927e+14 3.3581e+14
4859.5003 6.4927e+14 3.3574e+14
4859.5151 6.4927e+14 3.3567e+14
4859.5299 6.4927e+14 3.3561e+14
4859.5447 6.4927e+14 3.3554e+14
4859.5595 6.4927e+14 3.3548e+14
4859.5743 6.4927e+14 3.3541e+14
4859.5892 6.4926e+14 3.3535e+14
4859.6040 6.4926e+14 3.3529e+14
4859.6188 6.4926e+14 3.3522e+14
4859.6336 6.4926e+14 3.3516e+14
4859.6484 6.4926e+14 3.3510e+14
4859.6632 6.4926e+14 3.3504e+14
4859.6780 6.4926e+14 3.3498e+14
4859.6928 6.4925e+14 3.3492e+14
4859.7077 6.4925e+14 3.3486e+14
4859.7225 6.4925e+14 3.3480e+14
4859.7373 6.4925e+14 3.3474e+14
4859.7521 6.4925e+14 3.3468e+14
4859.7669 6.4925e+14 3.3462e+14
4859.7817 6.4925e+14 3.3457e+14
4859.7965 6.4924e+14 3.3451e+14
4859.8113 6.4924e+14 3.3445e+14
4859.8262 6.4924e+14 3.3440e+14
4859.8410 6.4924e+14 3.3434e+14
4859.8558 6.4924e+14 3.3429e+14
4859.8706 6.4924e+14 3.3424e+14
4859.8854 6.4924e+14 3.3418e+14
4859.9002 6.4923e+14 3.3413e+14
4859.9150 6.4923e+14 3.3408e+14
4859.9298 6.4923e+14 3.3403e+14
4859.9447 6.4923e+14 3.3397e+14
4859.9595 6.4923e+14 3.3392e+14
4859.9743 6.4923e+14 3.3387e+14
4859.9891 6.4923e+14 3.3382e+14
4860.0039 6.4923e+14 3.3378e+14
4860.0187 6.4922e+14 3.3373e+14
4860.0335 6.4922e+14 3.3368e+14
4860.0483 6.4922e+14 3.3363e+14
4860.0632 6.4922e+14 3.3358e+14
4860.0780 6.4922e+14 3.3354e+14
4860.0928 6.4922e+14 3.3349e+14
4860.1076 6.4922e+14 3.3345e+14
4860.1224 6.4921e+14 3.3340e+14
4860.1372 6.4921e+14 3.3336e+14
4860.1520 6.4921e+14 3.3331e+14
4860.1668 6.4921e+14 3.3327e+14
4860.1817 6.4921e+14 3.3323e+14
4860.1965 6.4921e+14 3.3319e+14
4860.2113 6.4921e+14 3.3315e+14
4860.2261 6.4920e+14 3.3310e+14
4860.2409 6.4920e+14 3.3306e+14
4860.2557 6.4920e+14 3.3302e+14
4860.2705 6.4920e+14 3.3298e+14
4860.2853 6.4920e+14 3.3295e+14
4860.3002 6.4920e+14 3.3291e+14
4860.3150 6.4920e+14 3.3287e+14
4860.3298 6.4919e+14 3.3283e+14
4860.3446 6.4919e+14 3.3280e+14
4860.3594 6.4919e+14 3.3276e+14
4860.3742 6.4919e+14 3.3272e+14
4860.3890 6.4919e+14 3.3269e+14
4860.4038 6.4919e+14 3.3265e+14
4860.4187 6.4919e+14 3.3262e+14
4860.4335 6.4918e+14 3.3259e+14
4860.4483 6.4918e+14 3.3255e+14
4860.4631 6.4918e+14 3.3252e+14
4860.4779 6.4918e+14 3.3249e+14
4860.4927 6.4918e+14 3.3246e+14
4860.5075 6.4918e+14 3.3243e+14
4860.5223 6.4918e+14 3.3240e+14
4860.5372 6.4917e+14 3.3237e+14
4860.5520 6.4917e+14 3.3234e+14
4860.5668 6.4917e+14 3.3231e+14
4860.5816 6.4917e+14 3.3228e+14
4860.5964 6.4917e+14 3.3226e+14
4860.6112 6.4917e+14 3.3223e+14
4860.6260 6.4917e+14 3.3220e+14
4860.6408 6.4916e+14 3.3218e+14
4860.6557 6.4916e+14 3.3215e+14
4860.6705 6.4916e+14 3.3213e+14
4860.6853 6.4916e+14 3.3210e+14
4860.7001 6.4916e+14 3.3208e+14
4860.7149 6.4916e+14 3.3206e+14
4860.7297 6.4916e+14 3.3204e+14
4860.7445 6.4915e+14 3.3201e+14
4860.7593 6.4915e+14 3.3199e+14
4860.7742 6.4915e+14 3.3197e+14
4860.7890 6.4915e+14 3.3195e+14
4860.8038 6.4915e+14 3.3193e+14
4860.8186 6.4915e+14 3.3191e+14
4860.8334 6.4915e+14 3.3189e+14
4860.8482 6.4915e+14 3.3188e+14
4860.8630 6.4914e+14 3.3186e+14
4860.8778 6.4914e+14 3.3184e+14
4860.8927 6.4914e+14 3.3183e+14
4860.9075 6.4914e+14 3.3181e+14
4860.9223 6.4914e+14 3.3180e+14
4860.9371 6.4914e+14 3.3178e+14
4860.9519 6.4914e+14 3.3177e+14
4860.9667 6.4913e+14 3.3175e+14
4860.9815 6.4913e+14 3.3174e+14
4860.9963 6.4913e+14 3.3173e+14
4861.0112 6.4913e+14 3.3172e+14
4861.0260 6.4913e+14 3.3171e+14
4861.0408 6.4913e+14 3.3169e+14
4861.0556 6.4913e+14 3.3168e+14
4861.0704 6.4912e+14 3.3167e+14
4861.0852 6.4912e+14 3.3167e+14
4861.1000 6.4912e+14 3.3166e+14
4861.1148 6.4912e+14 3.3165e+14
4861.1297 6.4912e+14 3.3164e+14
4861.1445 6.4912e+14 3.3163e+14
4861.1593 6.4912e+14 3.3163e+14
4861.1741 6.4911e+14 3.3162e+14
4861.1889 6.4911e+14 3.3162e+14
4861.2037 6.4911e+14 3.3161e+14
4861.2185 6.4911e+14 3.3161e+14
4861.2333 6.4911e+14 3.3161e+14
4861.2482 6.4911e+14 3.3160e+14
4861.2630 6.4911e+14 3.3160e+14
4861.2778 6.4910e+14 3.3160e+14
4861.2926 6.4910e+14 3.3160e+14
4861.3074 6.4910e+14 3.3160e+14
4861.3222 6.4910e+14 3.3160e+14
4861.3370 6.4910e+14 3.3160e+14
4861.3518 6.4910e+14 3.3160e+14
4861.3667 6.4910e+14 3.3160e+14
4861.3815 6.4909e+14 3.3160e+14
4861.3963 6.4909e+14 3.3160e+14
4861.4111 6.4909e+14 3.3161e+14
4861.4259 6.4909e+14 3.3161e+14
4861.4407 6.4909e+14 3.3161e+14
4861.4555 6.4909e+14 3.3162e+14
4861.4703 6.4909e+14 3.3163e+14
4861.4852 6.4908e+14 3.3163e+14
4861.5000 6.4908e+14 3.3164e+14
4861.5148 6.4908e+14 3.3164e+14
4861.5296 6.4908e+14 3.3165e+14
4861.5444 6.4908e+14 3.3166e+14
4861.5592 6.4908e+14 3.3167e+14
4861.5740 6.4908e+14 3.3168e+14
4861.5888 6.4907e+14 3.3169e+14
4861.6037 6.4907e+14 3.3170e+14
4861.6185 6.4907e+14 3.3171e+14
4861.6333 6.4907e+14 3.3172e+14
4861.6481 6.4907e+14 3.3173e+14
4861.6629 6.4907e+14 3.3175e+14
4861.6777 6.4907e+14 3.3176e+14
4861.6925 6.4907e+14 3.3177e+14
4861.7073 6.4906e+14 3.3179e+14
4861.7222 6.4906e+14 3.3180e+14
4861.7370 6.4906e+14 3.3182e+14
4861.7518 6.4906e+14 3.3183e+14
4861.7666 6.4906e+14 3.3185e+14
4861.7814 6.4906e+14 3.3187e+14
4861.7962 6.4906e+14 3.3188e+14
4861.8110 6.4905e+14 3.3190e+14
4861.8258 6.4905e+14 3.3192e+14
4861.8407 6.4905e+14 3.3194e+14
4861.8555 6.4905e+14 3.3196e+14
4861.8703 6.4905e+14 3.3198e+14
4861.8851 6.4905e+14 3.3200e+14
4861.8999 6.4905e+14 3.3202e+14
4861.9147 6.4904e+14 3.3205e+14
4861.9295 6.4904e+14 3.3207e+14
4861.9443 6.4904e+14 3.3209e+14
4861.9592 6.4904e+14 3.3211e+14
4861.9740 6.4904e+14 3.3214e+14
4861.9888 6.4904e+14 3.3216e+14
4862.0036 6.4904e+14 3.3219e+14
4862.0184 6.4903e+14 3.3221e+14
4862.0332 6.4903e+14 3.3224e+14
4862.0480 6.4903e+14 3.3227e+14
4862.0628 6.4903e+14 3.3230e+14
4862.0777 6.4903e+14 3.3232e+14
4862.0925 6.4903e+14 3.3235e+14
4862.1073 6.4903e+14 3.3238e+14
4862.1221 6.4902e+14 3.3241e+14
4862.1369 6.4902e+14 3.3244e+14
4862.1517 6.4902e+14 3.3247e+14
4862.1665 6.4902e+14 3.3250e+14
4862.1813 6.4902e+14 3.3254e+14
4862.1962 6.4902e+14 3.3257e+14
4862.2110 6.4902e+14 3.3260e+14
4862.2258 6.4901e+14 3.3263e+14
4862.2406 6.4901e+14 3.3267e+14
4862.2554 6.4901e+14 3.3270e+14
4862.2702 6.4901e+14 3.3274e+14
4862.2850 6.4901e+14 3.3277e+14
4862.2998 6.4901e+14 3.3281e+14
4862.3147 6.4901e+14 3.3285e+14
4862.3295 6.4900e+14 3.3288e+14
4862.3443 6.4900e+14 3.3292e+14
4862.3591 6.4900e+14 3.3296e+14
4862.3739 6.4900e+14 3.3300e+14
4862.3887 6.4900e+14 3.3304e+14
4862.4035 6.4900e+14 3.3308e+14
4862.4183 6.4900e+14 3.3312e+14
4862.4332 6.4899e+14 3.3316e+14
4862.4480 6.4899e+14 3.3320e+14
4862.4628 6.4899e+14 3.3324e+14
4862.4776 6.4899e+14 3.3329e+14
4862.4924 6.4899e+14 3.3333e+14
4862.5072 6.4899e+14 3.3337e+14
4862.5220 6.4899e+14 3.3342e+14
4862.5368 6.4899e+14 3.3346e+14
4862.5517 6.4898e+14 3.3351e+14
4862.5665 6.4898e+14 3.3356e+14
4862.5813 6.4898e+14 3.3360e+14
4862.5961 6.4898e+14 3.3365e+14
4862.6109 6.4898e+14 3.3370e+14
4862.6257 6.4898e+14 3.3374e+14
4862.6405 6.4898e+14 3.3379e+14
4862.6553 6.4897e+14 3.3384e+14
4862.6702 6.4897e+14 3.3389e+14
4862.6850 6.4897e+14 3.3394e+14
4862.6998 6.4897e+14 3.3399e+14
4862.7146 6.4897e+14 3.3404e+14
4862.7294 6.4897e+14 3.3410e+14
4862.7442 6.4897e+14 3.3415e+14
4862.7590 6.4896e+14 3.3420e+14
4862.7738 6.4896e+14 3.3426e+14
4862.7887 6.4896e+14 3.3431e+14
4862.8035 6.4896e+14 3.3436e+14
4862.8183 6.4896e+14 3.3442e+14
4862.8331 6.4896e+14 3.3447e+14
4862.8479 6.4896e+14 3.3453e+14
4862.8627 6.4895e+14 3.3459e+14
4862.8775 6.4895e+14 3.3464e+14
4862.8923 6.4895e+14 3.3470e+14
4862.9072 6.4895e+14 3.3476e+14
4862.9220 6.4895e+14 3.3482e+14
4862.9368 6.4895e+14 3.3488e+14
4862.9516 6.4895e+14 3.3494e+14
4862.9664 6.4894e+14 3.3500e+14
4862.9812 6.4894e+14 3.3506e+14
4862.9960 6.4894e+14 3.3512e+14
4863.0108 6.4894e+14 3.3518e+14
4863.0257 6.4894e+14 3.3524e+14
4863.0405 6.4894e+14 3.3531e+14
4863.0553 6.4894e+14 3.3537e+14
4863.0701 6.4893e+14 3.3543e+14
4863.0849 6.4893e+14 3.3550e+14
4863.0997 6.4893e+14 3.3556e+14
4863.1145 6.4893e+14 3.3563e+14
4863.1293 6.4893e+14 3.3570e+14
4863.1442 6.4893e+14 3.3576e+14
4863.1590 6.4893e+14 3.3583e+14
4863.1738 6.4892e+14 3.3590e+14
4863.1886 6.4892e+14 3.3596e+14
4863.2034 6.4892e+14 3.3603e+14
4863.2182 6.4892e+14 3.3610e+14
4863.2330 6.4892e+14 3.3617e+14
4863.2478 6.4892e+14 3.3624e+14
4863.2627 6.4892e+14 3.3631e+14
4863.2775 6.4891e+14 3.3638e+14
4863.2923 6.4891e+14 3.3645e+14
4863.3071 6.4891e+14 3.3653e+14
4863.3219 6.4891e+14 3.3660e+14
4863.3367 6.4891e+14 3.3667e+14
4863.3515 6.4891e+14 3.3675e+14
4863.3663 6.4891e+14 3.3682e+14
4863.3812 6.4891e+14 3.3689e+14
4863.3960 6.4890e+14 3.3697e+14
4863.4108 6.4890e+14 3.3705e+14
4863.4256 6.4890e+14 3.3712e+14
4863.4404 6.4890e+14 3.3720e+14
4863.4552 6.4890e+14 3.3728e+14
4863.4700 6.4890e+14 3.3735e+14
4863.4848 6.4890e+14 3.3743e+14
4863.4997 6.4889e+14 3.3751e+14
4863.5145 6.4889e+14 3.3759e+14
4863.5293 6.4889e+14 3.3767e+14
4863.5441 6.4889e+14 3.3775e+14
4863.5589 6.4889e+14 3.3783e+14
4863.5737 6.4889e+14 3.3791e+14
4863.5885 6.4889e+14 3.3799e+14
4863.6033 6.4888e+14 3.3807e+14
4863.6182 6.4888e+14 3.3816e+14
4863.6330 6.4888e+14 3.3824e+14
4863.6478 6.4888e+14 3.3832e+14
4863.6626 6.4888e+14 3.3841e+14
4863.6774 6.4888e+14 3.3849e+14
4863.6922 6.4888e+14 3.3858e+14
4863.7070 6.4887e+14 3.3866e+14
4863.7218 6.4887e+14 3.3875e+14
4863.7367 6.4887e+14 3.3884e+14
4863.7515 6.4887e+14 3.3892e+14
4863.7663 6.4887e+14 3.3901e+14
4863.7811 6.4887e+14 3.3910e+14
4863.7959 6.4887e+14 3.3919e+14
4863.8107 6.4886e+14 3.3927e+14
4863.8255 6.4886e+14 3.3936e+14
4863.8403 6.4886e+14 3.3945e+14
4863.8552 6.4886e+14 3.3954e+14
4863.8700 6.4886e+14 3.3964e+14
4863.8848 6.4886e+14 3.3973e+14
4863.8996 6.4886e+14 3.3982e+14
4863.9144 6.4885e+14 3.3991e+14
4863.9292 6.4885e+14 3.4000e+14
4863.9440 6.4885e+14 3.4010e+14
4863.9588 6.4885e+14 3.4019e+14
4863.9737 6.4885e+14 3.4028e+14
4863.9885 6.4885e+14 3.4038e+14
4864.0033 6.4885e+14 3.4047e+14
4864.0181 6.4884e+14 3.4057e+14
4864.0329 6.4884e+14 3.4067e+14
4864.0477 6.4884e+14 3.4076e+14
4864.0625 6.4884e+14 3.4086e+14
4864.0773 6.4884e+14 3.4096e+14
4864.0922 6.4884e+14 3.4105e+14
4864.1070 6.4884e+14 3.4115e+14
4864.1218 6.4883e+14 3.4125e+14
4864.1366 6.4883e+14 3.4135e+14
4864.1514 6.4883e+14 3.4145e+14
4864.1662 6.4883e+14 3.4155e+14
4864.1810 6.4883e+14 3.4165e+14
4864.1958 6.4883e+14 3.4175e+14
4864.2107 6.4883e+14 3.4185e+14
4864.2255 6.4882e+14 3.4196e+14
4864.2403 6.4882e+14 3.4206e+14
4864.2551 6.4882e+14 3.4216e+14
4864.2699 6.4882e+14 3.4227e+14
4864.2847 6.4882e+14 3.4237e+14
4864.2995 6.4882e+14 3.4247e+14
4864.3143 6.4882e+14 3.4258e+14
4864.3292 6.4882e+14 3.4268e+14
4864.3440 6.4881e+14 3.4279e+14
4864.3588 6.4881e+14 3.4289e+14
4864.3736 6.4881e+14 3.4300e+14
4864.3884 6.4881e+14 3.4311e+14
4864.4032 6.4881e+14 3.4322e+14
4864.4180 6.4881e+14 3.4332e+14
4864.4328 6.4881e+14 3.4343e+14
4864.4477 6.4880e+14 3.4354e+14
4864.4625 6.4880e+14 3.4365e+14
4864.4773 6.4880e+14 3.4376e+14
4864.4921 6.4880e+14 3.4387e+14
4864.5069 6.4880e+14 3.4398e+14
4864.5217 6.4880e+14 3.4409e+14
4864.5365 6.4880e+14 3.4420e+14
4864.5513 6.4879e+14 3.4431e+14
4864.5662 6.4879e+14 3.4443e+14
4864.5810 6.4879e+14 3.4454e+14
4864.5958 6.4879e+14 3.4465e+14
4864.6106 6.4879e+14 3.4477e+14
4864.6254 6.4879e+14 3.4488e+14
4864.6402 6.4879e+14 3.4499e+14
4864.6550 6.4878e+14 3.4511e+14
4864.6698 6.4878e+14 3.4522e+14
4864.6847 6.4878e+14 3.4534e+14
4864.6995 6.4878e+14 3.4546e+14
4864.7143 6.4878e+14 3.4557e+14
4864.7291 6.4878e+14 3.4569e+14
4864.7439 6.4878e+14 3.4581e+14
4864.7587 6.4877e+14 3.4592e+14
4864.7735 6.4877e+14 3.4604e+14
4864.7883 6.4877e+14 3.4616e+14
4864.8032 6.4877e+14 3.4628e+14
4864.8180 6.4877e+14 3.4640e+14
4864.8328 6.4877e+14 3.4652e+14
4864.8476 6.4877e+14 3.4664e+14
4864.8624 6.4876e+14 3.4676e+14
4864.8772 6.4876e+14 3.4688e+14
4864.8920 6.4876e+14 3.4700e+14
4864.9068 6.4876e+14 3.4713e+14
4864.9217 6.4876e+14 3.4725e+14
4864.9365 6.4876e+14 3.4737e+14
4864.9513 6.4876e+14 3.4749e+14
4864.9661 6.4875e+14 3.4762e+14
4864.9809 6.4875e+14 3.4774e+14
4864.9957 6.4875e+14 3.4787e+14
4865.0105 6.4875e+14 3.4799e+14
4865.0253 6.4875e+14 3.4812e+14
4865.0402 6.4875e+14 3.4824e+14
4865.0550 6.4875e+14 3.4837e+14
4865.0698 6.4874e+14 3.4849e+14
4865.0846 6.4874e+14 3.4862e+14
4865.0994 6.4874e+14 3.4875e+14
4865.1142 6.4874e+14 3.4888e+14
4865.1290 6.4874e+14 3.4900e+14
4865.1438 6.4874e+14 3.4913e+14
4865.1587 6.4874e+14 3.4926e+14
4865.1735 6.4873e+14 3.4939e+14
4865.1883 6.4873e+14 3.4952e+14
4865.2031 6.4873e+14 3.4965e+14
4865.2179 6.4873e+14 3.4978e+14
4865.2327 6.4873e+14 3.4991e+14
4865.2475 6.4873e+14 3.5004e+14
4865.2623 6.4873e+14 3.5017e+14
4865.2772 6.4873e+14 3.5030e+14
4865.2920 6.4872e+14 3.5044e+14
4865.3068 6.4872e+14 3.5057e+14
4865.3216 6.4872e+14 3.5070e+14
4865.3364 6.4872e+14 3.5084e+14
4865.3512 6.4872e+14 3.5097e+14
4865.3660 6.4872e+14 3.5110e+14
4865.3808 6.4872e+14 3.5124e+14
4865.3957 6.4871e+14 3.5137e+14
4865.4105 6.4871e+14 3.5151e+14
4865.4253 6.4871e+14 3.5164e+14
4865.4401 6.4871e+14 3.5178e+14
4865.4549 6.4871e+14 3.5192e+14
4865.4697 6.4871e+14 3.5205e+14
4865.4845 6.4871e+14 3.5219e+14
4865.4993 6.4870e+14 3.5233e+14
4865.5142 6.4870e+14 3.5246e+14
4865.5290 6.4870e+14 3.5260e+14
4865.5438 6.4870e+14 3.5274e+14
4865.5586 6.4870e+14 3.5288e+14
4865.5734 6.4870e+14 3.5302e+14
4865.5882 6.4870e+14 3.5316e+14
4865.6030 6.4869e+14 3.5330e+14
4865.6178 6.4869e+14 3.5344e+14
4865.6327 6.4869e+14 3.5358e+14
4865.6475 6.4869e+14 3.5372e+14
4865.6623 6.4869e+14 3.5386e+14
4865.6771 6.4869e+14 3.5400e+14
4865.6919 6.4869e+14 3.5415e+14
4865.7067 6.4868e+14 3.5429e+14
4865.7215 6.4868e+14 3.5443e+14
4865.7363 6.4868e+14 3.5457e+14
4865.7512 6.4868e+14 3.5472e+14
4865.7660 6.4868e+14 3.5486e+14
4865.7808 6.4868e+14 3.5501e+14
4865.7956 6.4868e+14 3.5515e+14
4865.8104 6.4867e+14 3.5529e+14
4865.8252 6.4867e+14 3.5544e+14
4865.8400 6.4867e+14 3.5559e+14
4865.8548 6.4867e+14 3.5573e+14
4865.8697 6.4867e+14 3.5588e+14
4865.8845 6.4867e+14 3.5602e+14
4865.8993 6.4867e+14 3.5617e+14
4865.9141 6.4866e+14 3.5632e+14
4865.9289 6.4866e+14 3.5647e+14
4865.9437 6.4866e+14 3.5661e+14
4865.9585 6.4866e+14 3.5676e+14
4865.9733 6.4866e+14 3.5691e+14
4865.9882 6.4866e+14 3.5706e+14
4866.0030 6.4866e+14 3.5721e+14
4866.0178 6.4865e+14 3.5736e+14
4866.0326 6.4865e+14 3.5751e+14
4866.0474 6.4865e+14 3.5766e+14
4866.0622 6.4865e+14 3.5781e+14
4866.0770 6.4865e+14 3.5796e+14
4866.0918 6.4865e+14 3.5811e+14
4866.1067 6.4865e+14 3.5826e+14
4866.1215 6.4864e+14 3.5841e+14
4866.1363 6.4864e+14 3.5856e+14
4866.1511 6.4864e+14 3.5872e+14
4866.1659 6.4864e+14 3.5887e+14
4866.1807 6.4864e+14 3.5902e+14
4866.1955 6.4864e+14 3.5918e+14
4866.2103 6.4864e+14 3.5933e+14
4866.2252 6.4863e+14 3.5948e+14
4866.2400 6.4863e+14 3.5964e+14
4866.2548 6.4863e+14 3.5979e+14
4866.2696 6.4863e+14 3.5995e+14
4866.2844 6.4863e+14 3.6010e+14
4866.2992 6.4863e+14 3.6026e+14
4866.3140 6.4863e+14 3.6041e+14
4866.3288 6.4863e+14 3.6057e+14
4866.3437 6.4862e+14 3.6072e+14
4866.3585 6.4862e+14 3.6088e+14
4866.3733 6.4862e+14 3.6104e+14
4866.3881 6.4862e+14 3.6120e+14
4866.4029 6.4862e+14 3.6135e+14
4866.4177 6.4862e+14 3.6151e+14
4866.4325 6.4862e+14 3.6167e+14
4866.4473 6.4861e+14 3.6183e+14
4866.4622 6.4861e+14 3.6199e+14
4866.4770 6.4861e+14 3.6214e+14
4866.4918 6.4861e+14 3.6230e+14
4866.5066 6.4861e+14 3.6246e+14
4866.5214 6.4861e+14 3.6262e+14
4866.5362 6.4861e+14 3.6278e+14
4866.5510 6.4860e+14 3.6294e+14
4866.5658 6.4860e+14 3.6310e+14
4866.5807 6.4860e+14 3.6326e+14
4866.5955 6.4860e+14 3.6343e+14
4866.6103 6.4860e+14 3.6359e+14
4866.6251 6.4860e+14 3.6375e+14
4866.6399 6.4860e+14 3.6391e+14
4866.6547 6.4859e+14 3.6407e+14
4866.6695 6.4859e+14 3.6424e+14
4866.6843 6.4859e+14 3.6440e+14
4866.6992 6.4859e+14 3.6456e+14
4866.7140 6.4859e+14 3.6472e+14
4866.7288 6.4859e+14 3.6489e+14
4866.7436 6.4859e+14 3.6505e+14
4866.7584 6.4858e+14 3.6522e+14
4866.7732 6.4858e+14 3.6538e+14
4866.7880 6.4858e+14 3.6554e+14
4866.8028 6.4858e+14 3.6571e+14
4866.8177 6.4858e+14 3.6587e+14
4866.8325 6.4858e+14 3.6604e+14
4866.8473 6.4858e+14 3.6621e+14
4866.8621 6.4857e+14 3.6637e+14
4866.8769 6.4857e+14 3.6654e+14
4866.8917 6.4857e+14 3.6670e+14
4866.9065 6.4857e+14 3.6687e+14
4866.9213 6.4857e+14 3.6704e+14
4866.9362 6.4857e+14 3.6721e+14
4866.9510 6.4857e+14 3.6737e+14
4866.9658 6.4856e+14 3.6754e+14
4866.9806 6.4856e+14 3.6771e+14
4866.9954 6.4856e+14 3.6788e+14
4867.0102 6.4856e+14 3.6804e+14
4867.0250 6.4856e+14 3.6821e+14
4867.0398 6.4856e+14 3.6838e+14
4867.0547 6.4856e+14 3.6855e+14
4867.0695 6.4855e+14 3.6872e+14
4867.0843 6.4855e+14 3.6889e+14
4867.0991 6.4855e+14 3.6906e+14
4867.1139 6.4855e+14 3.6923e+14
4867.1287 6.4855e+14 3.6940e+14
4867.1435 6.4855e+14 3.6957e+14
4867.1583 6.4855e+14 3.6974e+14
4867.1732 6.4854e+14 3.6991e+14
4867.1880 6.4854e+14 3.7008e+14
4867.2028 6.4854e+14 3.7026e+14
4867.2176 6.4854e+14 3.7043e+14
4867.2324 6.4854e+14 3.7060e+14
4867.2472 6.4854e+14 3.7077e+14
4867.2620 6.4854e+14 3.7094e+14
4867.2768 6.4853e+14 3.7112e+14
4867.2917 6.4853e+14 3.7129e+14
4867.3065 6.4853e+14 3.7146e+14
4867.3213 6.4853e+14 3.7163e+14
4867.3361 6.4853e+14 3.7181e+14
4867.3509 6.4853e+14 3.7198e+14
4867.3657 6.4853e+14 3.7216e+14
4867.3805 6.4853e+14 3.7233e+14
4867.3953 6.4852e+14 3.7250e+14
4867.4102 6.4852e+14 3.7268e+14
4867.4250 6.4852e+14 3.7285e+14
4867.4398 6.4852e+14 3.7303e+14
4867.4546 6.4852e+14 3.7320e+14
4867.4694 6.4852e+14 3.7338e+14
4867.4842 6.4852e+14 3.7355e+14
4867.4990 6.4851e+14 3.7373e+14
4867.5138 6.4851e+14 3.7391e+14
4867.5287 6.4851e+14 3.7408e+14
4867.5435 6.4851e+14 3.7426e+14
4867.5583 6.4851e+14 3.7443e+14
4867.5731 6.4851e+14 3.7461e+14
4867.5879 6.4851e+14 3.7479e+14
4867.6027 6.4850e+14 3.7497e+14
4867.6175 6.4850e+14 3.7514e+14
4867.6323 6.4850e+14 3.7532e+14
4867.6472 6.4850e+14 3.7550e+14
4867.6620 6.4850e+14 3.7568e+14
4867.6768 6.4850e+14 3.7585e+14
4867.6916 6.4850e+14 3.7603e+14
4867.7064 6.4849e+14 3.7621e+14
4867.7212 6.4849e+14 3.7639e+14
4867.7360 6.4849e+14 3.7657e+14
4867.7508 6.4849e+14 3.7675e+14
4867.7657 6.4849e+14 3.7693e+14
4867.7805 6.4849e+14 3.7711e+14
4867.7953 6.4849e+14 3.7729e+14
4867.8101 6.4848e+14 3.7746e+14
4867.8249 6.4848e+14 3.7764e+14
4867.8397 6.4848e+14 3.7782e+14
4867.8545 6.4848e+14 3.7801e+14
4867.8693 6.4848e+14 3.7819e+14
4867.8842 6.4848e+14 3.7837e+14
4867.8990 6.4848e+14 3.7855e+14
4867.9138 6.4847e+14 3.7873e+14
4867.9286 6.4847e+14 3.7891e+14
4867.9434 6.4847e+14 3.7909e+14
4867.9582 6.4847e+14 3.7927e+14
4867.9730 6.4847e+14 3.7945e+14
4867.9878 6.4847e+14 3.7963e+14
4868.0027 6.4847e+14 3.7982e+14
4868.0175 6.4846e+14 3.8000e+14
4868.0323 6.4846e+14 3.8018e+14
4868.0471 6.4846e+14 3.8036e+14
4868.0619 6.4846e+14 3.8055e+14
4868.0767 6.4846e+14 3.8073e+14
4868.0915 6.4846e+14 3.8091e+14
4868.1063 6.4846e+14 3.8109e+14
4868.1211 6.4845e+14 3.8128e+14
4868.1360 6.4845e+14 3.8146e+14
4868.1508 6.4845e+14 3.8164e+14
4868.1656 6.4845e+14 3.8183e+14
4868.1804 6.4845e+14 3.8201e+14
4868.1952 6.4845e+14 3.8220e+14
4868.2100 6.4845e+14 3.8238e+14
4868.2248 6.4844e+14 3.8256e+14
4868.2396 6.4844e+14 3.8275e+14
4868.2545 6.4844e+14 3.8293e+14
4868.2693 6.4844e+14 3.8312e+14
4868.2841 6.4844e+14 3.8330e+14
4868.2989 6.4844e+14 3.8349e+14
4868.3137 6.4844e+14 3.8367e+14
4868.3285 6.4843e+14 3.8386e+14
4868.3433 6.4843e+14 3.8404e+14
4868.3581 6.4843e+14 3.8423e+14
4868.3730 6.4843e+14 3.8441e+14
4868.3878 6.4843e+14 3.8460e+14
4868.4026 6.4843e+14 3.8479e+14
4868.4174 6.4843e+14 3.8497e+14
4868.4322 6.4842e+14 3.8516e+14
4868.4470 6.4842e+14 3.8535e+14
4868.4618 6.4842e+14 3.8553e+14
4868.4766 6.4842e+14 3.8572e+14
4868.4915 6.4842e+14 3.8590e+14
4868.5063 6.4842e+14 3.8609e+14
4868.5211 6.4842e+14 3.8628e+14
4868.5359 6.4841e+14 3.8647e+14
4868.5507 6.4841e+14 3.8665e+14
4868.5655 6.4841e+14 3.8684e+14
4868.5803 6.4841e+14 3.8703e+14
4868.5951 6.4841e+14 3.8721e+14
4868.6100 6.4841e+14 3.8740e+14
4868.6248 6.4841e+14 3.8759e+14
4868.6396 6.4841e+14 3.8778e+14
4868.6544 6.4840e+14 3.8797e+14
4868.6692 6.4840e+14 3.8815e+14
4868.6840 6.4840e+14 3.8834e+14
4868.6988 6.4840e+14 3.8853e+14
4868.7136 6.4840e+14 3.8872e+14
4868.7285 6.4840e+14 3.8891e+14
4868.7433 6.4840e+14 3.8910e+14
4868.7581 6.4839e+14 3.8929e+14
4868.7729 6.4839e+14 3.8947e+14
4868.7877 6.4839e+14 3.8966e+14
4868.8025 6.4839e+14 3.8985e+14
4868.8173 6.4839e+14 3.9004e+14
4868.8321 6.4839e+14 3.9023e+14
4868.8470 6.4839e+14 3.9042e+14
4868.8618 6.4838e+14 3.9061e+14
4868.8766 6.4838e+14 3.9080e+14
4868.8914 6.4838e+14 3.9099e+14
4868.9062 6.4838e+14 3.9118e+14
4868.9210 6.4838e+14 3.9137e+14
4868.9358 6.4838e+14 3.9156e+14
4868.9506 6.4838e+14 3.9175e+14
4868.9655 6.4837e+14 3.9194e+14
4868.9803 6.4837e+14 3.9213e+14
4868.9951 6.4837e+14 3.9232e+14
4869.0099 6.4837e+14 3.9251e+14
4869.0247 6.4837e+14 3.9270e+14
4869.0395 6.4837e+14 3.9289e+14
4869.0543 6.4837e+14 3.9308e+14
4869.0691 6.4836e+14 3.9327e+14
4869.0840 6.4836e+14 3.9346e+14
4869.0988 6.4836e+14 3.9365e+14
4869.1136 6.4836e+14 3.9385e+14
4869.1284 6.4836e+14 3.9404e+14
4869.1432 6.4836e+14 3.9423e+14
4869.1580 6.4836e+14 3.9442e+14
4869.1728 6.4835e+14 3.9461e+14
4869.1876 6.4835e+14 3.9480e+14
4869.2025 6.4835e+14 3.9499e+14
4869.2173 6.4835e+14 3.9519e+14
4869.2321 6.4835e+14 3.9538e+14
4869.2469 6.4835e+14 3.9557e+14
4869.2617 6.4835e+14 3.9576e+14
4869.2765 6.4834e+14 3.9595e+14
4869.2913 6.4834e+14 3.9614e+14
4869.3061 6.4834e+14 3.9634e+14
4869.3210 6.4834e+14 3.9653e+14
4869.3358 6.4834e+14 3.9672e+14
4869.3506 6.4834e+14 3.9691e+14
4869.3654 6.4834e+14 3.9710e+14
4869.3802 6.4833e+14 3.9730e+14
4869.3950 6.4833e+14 3.9749e+14
4869.4098 6.4833e+14 3.9768e+14
4869.4246 6.4833e+14 3.9787e+14
4869.4395 6.4833e+14 3.9807e+14
4869.4543 6.4833e+14 3.9826e+14
4869.4691 6.4833e+14 3.9845e+14
4869.4839 6.4832e+14 3.9865e+14
4869.4987 6.4832e+14 3.9884e+14
4869.5135 6.4832e+14 3.9903e+14
4869.5283 6.4832e+14 3.9922e+14
4869.5431 6.4832e+14 3.9942e+14
4869.5580 6.4832e+14 3.9961e+14
4869.5728 6.4832e+14 3.9980e+14
4869.5876 6.4831e+14 4.0000e+14
4869.6024 6.4831e+14 4.0019e+14
4869.6172 6.4831e+14 4.0038e+14
4869.6320 6.4831e+14 4.0058e+14
4869.6468 6.4831e+14 4.0077e+14
4869.6616 6.4831e+14 4.0096e+14
4869.6765 6.4831e+14 4.0116e+14
4869.6913 6.4830e+14 4.0135e+14
4869.7061 6.4830e+14 4.0154e+14
4869.7209 6.4830e+14 4.0174e+14
4869.7357 6.4830e+14 4.0193e+14
4869.7505 6.4830e+14 4.0212e+14
4869.7653 6.4830e+14 4.0232e+14
4869.7801 6.4830e+14 4.0251e+14
4869.7950 6.4829e+14 4.0271e+14
4869.8098 6.4829e+14 4.0290e+14
4869.8246 6.4829e+14 4.0309e+14
4869.8394 6.4829e+14 4.0329e+14
4869.8542 6.4829e+14 4.0348e+14
4869.8690 6.4829e+14 4.0367e+14
4869.8838 6.4829e+14 4.0387e+14
4869.8986 6.4829e+14 4.0406e+14
4869.9135 6.4828e+14 4.0426e+14
4869.9283 6.4828e+14 4.0445e+14
4869.9431 6.4828e+14 4.0464e+14
4869.9579 6.4828e+14 4.0484e+14
4869.9727 6.4828e+14 4.0503e+14
4869.9875 6.4828e+14 4.0523e+14
4870.0023 6.4828e+14 4.0542e+14
4870.0171 6.4827e+14 4.0562e+14
4870.0320 6.4827e+14 4.0581e+14
4870.0468 6.4827e+14 4.0600e+14
4870.0616 6.4827e+14 4.0620e+14
4870.0764 6.4827e+14 4.0639e+14
4870.0912 6.4827e+14 4.0659e+14
4870.1060 6.4827e+14 4.0678e+14
4870.1208 6.4826e+14 4.0698e+14
4870.1356 6.4826e+14 4.0717e+14
4870.1505 6.4826e+14 4.0736e+14
4870.1653 6.4826e+14 4.0756e+14
4870.1801 6.4826e+14 4.0775e+14
4870.1949 6.4826e+14 4.0795e+14
4870.2097 6.4826e+14 4.0814e+14
4870.2245 6.4825e+14 4.0834e+14
4870.2393 6.4825e+14 4.0853e+14
4870.2541 6.4825e+14 4.0873e+14
4870.2690 6.4825e+14 4.0892e+14
4870.2838 6.4825e+14 4.0912e+14
4870.2986 6.4825e+14 4.0931e+14
4870.3134 6.4825e+14 4.0950e+14
4870.3282 6.4824e+14 4.0970e+14
4870.3430 6.4824e+14 4.0989e+14
4870.3578 6.4824e+14 4.1009e+14
4870.3726 6.4824e+14 4.1028e+14
4870.3875 6.4824e+14 4.1048e+14
4870.4023 6.4824e+14 4.1067e+14
4870.4171 6.4824e+14 4.1087e+14
4870.4319 6.4823e+14 4.1106e+14
4870.4467 6.4823e+14 4.1126e+14
4870.4615 6.4823e+14 4.1145e+14
4870.4763 6.4823e+14 4.1164e+14
4870.4911 6.4823e+14 4.1184e+14
4870.5060 6.4823e+14 4.1203e+14
4870.5208 6.4823e+14 4.1223e+14
4870.5356 6.4822e+14 4.1242e+14
4870.5504 6.4822e+14 4.1262e+14
4870.5652 6.4822e+14 4.1281e+14
4870.5800 6.4822e+14 4.1301e+14
4870.5948 6.4822e+14 4.1320e+14
4870.6096 6.4822e+14 4.1340e+14
4870.6245 6.4822e+14 4.1359e+14
4870.6393 6.4821e+14 4.1379e+14
4870.6541 6.4821e+14 4.1398e+14
4870.6689 6.4821e+14 4.1417e+14
4870.6837 6.4821e+14 4.1437e+14
4870.6985 6.4821e+14 4.1456e+14
4870.7133 6.4821e+14 4.1476e+14
4870.7281 6.4821e+14 4.1495e+14
4870.7430 6.4820e+14 4.1515e+14
4870.7578 6.4820e+14 4.1534e+14
4870.7726 6.4820e+14 4.1554e+14
4870.7874 6.4820e+14 4.1573e+14
4870.8022 6.4820e+14 4.1592e+14
4870.8170 6.4820e+14 4.1612e+14
4870.8318 6.4820e+14 4.1631e+14
4870.8466 6.4819e+14 4.1651e+14
4870.8615 6.4819e+14 4.1670e+14
4870.8763 6.4819e+14 4.1690e+14
4870.8911 6.4819e+14 4.1709e+14
4870.9059 6.4819e+14 4.1728e+14
4870.9207 6.4819e+14 4.1748e+14
4870.9355 6.4819e+14 4.1767e+14
4870.9503 6.4818e+14 4.1787e+14
4870.9651 6.4818e+14 4.1806e+14
4870.9800 6.4818e+14 4.1826e+14
4870.9948 6.4818e+14 4.1845e+14
4871.0096 6.4818e+14 4.1864e+14
4871.0244 6.4818e+14 4.1884e+14
4871.0392 6.4818e+14 4.1903e+14
4871.0540 6.4817e+14 4.1923e+14
4871.0688 6.4817e+14 4.1942e+14
4871.0836 6.4817e+14 4.1961e+14
4871.0985 6.4817e+14 4.1981e+14
4871.1133 6.4817e+14 4.2000e+14
4871.1281 6.4817e+14 4.2020e+14
4871.1429 6.4817e+14 4.2039e+14
4871.1577 6.4816e+14 4.2058e+14
4871.1725 6.4816e+14 4.2078e+14
4871.1873 6.4816e+14 4.2097e+14
4871.2021 6.4816e+14 4.2116e+14
4871.2170 6.4816e+14 4.2136e+14
4871.2318 6.4816e+14 4.2155e+14
4871.2466 6.4816e+14 4.2174e+14
4871.2614 6.4816e+14 4.2194e+14
4871.2762 6.4815e+14 4.2213e+14
4871.2910 6.4815e+14 4.2233e+14
4871.3058 6.4815e+14 4.2252e+14
4871.3206 6.4815e+14 4.2271e+14
4871.3355 6.4815e+14 4.2291e+14
4871.3503 6.4815e+14 4.2310e+14
4871.3651 6.4815e+14 4.2329e+14
4871.3799 6.4814e+14 4.2348e+14
4871.3947 6.4814e+14 4.2368e+14
4871.4095 6.4814e+14 4.2387e+14
4871.4243 6.4814e+14 4.2406e+14
4871.4391 6.4814e+14 4.2426e+14
4871.4540 6.4814e+14 4.2445e+14
4871.4688 6.4814e+14 4.2464e+14
4871.4836 6.4813e+14 4.2484e+14
4871.4984 6.4813e+14 4.2503e+14
4871.5132 6.4813e+14 4.2522e+14
4871.5280 6.4813e+14 4.2541e+14
4871.5428 6.4813e+14 4.2561e+14
4871.5576 6.4813e+14 4.2580e+14
4871.5725 6.4813e+14 4.2599e+14
4871.5873 6.4812e+14 4.2618e+14
4871.6021 6.4812e+14 4.2638e+14
4871.6169 6.4812e+14 4.2657e+14
4871.6317 6.4812e+14 4.2676e+14
4871.6465 6.4812e+14 4.2695e+14
4871.6613 6.4812e+14 4.2715e+14
4871.6761 6.4812e+14 4.2734e+14
4871.6910 6.4811e+14 4.2753e+14
4871.7058 6.4811e+14 4.2772e+14
4871.7206 6.4811e+14 4.2791e+14
4871.7354 6.4811e+14 4.2811e+14
4871.7502 6.4811e+14 4.2830e+14
4871.7650 6.4811e+14 4.2849e+14
4871.7798 6.4811e+14 4.2868e+14
4871.7946 6.4810e+14 4.2887e+14
4871.8095 6.4810e+14 4.2906e+14
4871.8243 6.4810e+14 4.2926e+14
4871.8391 6.4810e+14 4.2945e+14
4871.8539 6.4810e+14 4.2964e+14
4871.8687 6.4810e+14 4.2983e+14
4871.8835 6.4810e+14 4.3002e+14
4871.8983 6.4809e+14 4.3021e+14
4871.9131 6.4809e+14 4.3040e+14
4871.9280 6.4809e+14 4.3060e+14
4871.9428 6.4809e+14 4.3079e+14
4871.9576 6.4809e+14 4.3098e+14
4871.9724 6.4809e+14 4.3117e+14
4871.9872 6.4809e+14 4.3136e+14
4872.0020 6.4808e+14 4.3155e+14
4872.0168 6.4808e+14 4.3174e+14
4872.0316 6.4808e+14 4.3193e+14
4872.0465 6.4808e+14 4.3212e+14
4872.0613 6.4808e+14 4.3231e+14
4872.0761 6.4808e+14 4.3250e+14
4872.0909 6.4808e+14 4.3269e+14
4872.1057 6.4807e+14 4.3288e+14
4872.1205 6.4807e+14 4.3307e+14
4872.1353 6.4807e+14 4.3326e+14
4872.1501 6.4807e+14 4.3345e+14
4872.1650 6.4807e+14 4.3364e+14
4872.1798 6.4807e+14 4.3383e+14
4872.1946 6.4807e+14 4.3402e+14
4872.2094 6.4806e+14 4.3421e+14
4872.2242 6.4806e+14 4.3440e+14
4872.2390 6.4806e+14 4.3459e+14
4872.2538 6.4806e+14 4.3478e+14
4872.2686 6.4806e+14 4.3497e+14
4872.2835 6.4806e+14 4.3516e+14
4872.2983 6.4806e+14 4.3535e+14
4872.3131 6.4805e+14 4.3554e+14
4872.3279 6.4805e+14 4.3573e+14
4872.3427 6.4805e+14 4.3592e+14
4872.3575 6.4805e+14 4.3611e+14
4872.3723 6.4805e+14 4.3630e+14
4872.3871 6.4805e+14 4.3648e+14
4872.4020 6.4805e+14 4.3667e+14
4872.4168 6.4804e+14 4.3686e+14
4872.4316 6.4804e+14 4.3705e+14
4872.4464 6.4804e+14 4.3724e+14
4872.4612 6.4804e+14 4.3743e+14
4872.4760 6.4804e+14 4.3762e+14
4872.4908 6.4804e+14 4.3780e+14
4872.5056 6.4804e+14 4.3799e+14
4872.5205 6.4803e+14 4.3818e+14
4872.5353 6.4803e+14 4.3837e+14
4872.5501 6.4803e+14 4.3856e+14
4872.5649 6.4803e+14 4.3874e+14
4872.5797 6.4803e+14 4.3893e+14
4872.5945 6.4803e+14 4.3912e+14
4872.6093 6.4803e+14 4.3931e+14
4872.6241 6.4802e+14 4.3949e+14
4872.6390 6.4802e+14 4.3968e+14
4872.6538 6.4802e+14 4.3987e+14
4872.6686 6.4802e+14 4.4006e+14
4872.6834 6.4802e+14 4.4024e+14
4872.6982 6.4802e+14 4.4043e+14
4872.7130 6.4802e+14 4.4062e+14
4872.7278 6.4801e+14 4.4080e+14
4872.7426 6.4801e+14 4.4099e+14
4872.7575 6.4801e+14 4.4118e+14
4872.7723 6.4801e+14 4.4136e+14
4872.7871 6.4801e+14 4.4155e+14
4872.8019 6.4801e+14 4.4174e+14
4872.8167 6.4801e+14 4.4192e+14
4872.8315 6.4801e+14 4.4211e+14
4872.8463 6.4800e+14 4.4229e+14
4872.8611 6.4800e+14 4.4248e+14
4872.8760 6.4800e+14 4.4267e+14
4872.8908 6.4800e+14 4.4285e+14
4872.9056 6.4800e+14 4.4304e+14
4872.9204 6.4800e+14 4.4322e+14
4872.9352 6.4800e+14 4.4341e+14
4872.9500 6.4799e+14 4.4359e+14
4872.9648 6.4799e+14 4.4378e+14
4872.9796 6.4799e+14 4.4397e+14
4872.9945 6.4799e+14 4.4415e+14
4873.0093 6.4799e+14 4.4434e+14
4873.0241 6.4799e+14 4.4452e+14
4873.0389 6.4799e+14 4.4470e+14
4873.0537 6.4798e+14 4.4489e+14
4873.0685 6.4798e+14 4.4507e+14
4873.0833 6.4798e+14 4.4526e+14
4873.0981 6.4798e+14 4.4544e+14
4873.1130 6.4798e+14 4.4563e+14
4873.1278 6.4798e+14 4.4581e+14
4873.1426 6.4798e+14 4.4600e+14
4873.1574 6.4797e+14 4.4618e+14
4873.1722 6.4797e+14 4.4636e+14
4873.1870 6.4797e+14 4.4655e+14
4873.2018 6.4797e+14 4.4673e+14
4873.2166 6.4797e+14 4.4691e+14
4873.2315 6.4797e+14 4.4710e+14
4873.2463 6.4797e+14 4.4728e+14
4873.2611 6.4796e+14 4.4746e+14
4873.2759 6.4796e+14 4.4765e+14
4873.2907 6.4796e+14 4.4783e+14
4873.3055 6.4796e+14 4.4801e+14
4873.3203 6.4796e+14 4.4820e+14
4873.3351 6.4796e+14 4.4838e+14
4873.3500 6.4796e+14 4.4856e+14
4873.3648 6.4795e+14 4.4874e+14
4873.3796 6.4795e+14 4.4893e+14
4873.3944 6.4795e+14 4.4911e+14
4873.4092 6.4795e+14 4.4929e+14
4873.4240 6.4795e+14 4.4947e+14
4873.4388 6.4795e+14 4.4965e+14
4873.4536 6.4795e+14 4.4984e+14
4873.4685 6.4794e+14 4.5002e+14
4873.4833 6.4794e+14 4.5020e+14
4873.4981 6.4794e+14 4.5038e+14
4873.5129 6.4794e+14 4.5056e+14
4873.5277 6.4794e+14 4.5074e+14
4873.5425 6.4794e+14 4.5092e+14
4873.5573 6.4794e+14 4.5111e+14
4873.5721 6.4793e+14 4.5129e+14
4873.5870 6.4793e+14 4.5147e+14
4873.6018 6.4793e+14 4.5165e+14
4873.6166 6.4793e+14 4.5183e+14
4873.6314 6.4793e+14 4.5201e+14
4873.6462 6.4793e+14 4.5219e+14
4873.6610 6.4793e+14 4.5237e+14
4873.6758 6.4792e+14 4.5255e+14
4873.6906 6.4792e+14 4.5273e+14
4873.7055 6.4792e+14 4.5291e+14
4873.7203 6.4792e+14 4.5309e+14
4873.7351 6.4792e+14 4.5327e+14
4873.7499 6.4792e+14 4.5345e+14
4873.7647 6.4792e+14 4.5363e+14
4873.7795 6.4791e+14 4.5381e+14
4873.7943 6.4791e+14 4.5399e+14
4873.8091 6.4791e+14 4.5417e+14
4873.8240 6.4791e+14 4.5434e+14
4873.8388 6.4791e+14 4.5452e+14
4873.8536 6.4791e+14 4.5470e+14
4873.8684 6.4791e+14 4.5488e+14
4873.8832 6.4790e+14 4.5506e+14
4873.8980 6.4790e+14 4.5524e+14
4873.9128 6.4790e+14 4.5542e+14
4873.9276 6.4790e+14 4.5559e+14
4873.9425 6.4790e+14 4.5577e+14
4873.9573 6.4790e+14 4.5595e+14
4873.9721 6.4790e+14 4.5613e+14
4873.9869 6.4789e+14 4.5631e+14
4874.0017 6.4789e+14 4.5648e+14
4874.0165 6.4789e+14 4.5666e+14
4874.0313 6.4789e+14 4.5684e+14
4874.0461 6.4789e+14 4.5702e+14
4874.0610 6.4789e+14 4.5719e+14
4874.0758 6.4789e+14 4.5737e+14
4874.0906 6.4788e+14 4.5755e+14
4874.1054 6.4788e+14 4.5772e+14
4874.1202 6.4788e+14 4.5790e+14
4874.1350 6.4788e+14 4.5808e+14
4874.1498 6.4788e+14 4.5825e+14
4874.1646 6.4788e+14 4.5843e+14
4874.1795 6.4788e+14 4.5860e+14
4874.1943 6.4787e+14 4.5878e+14
4874.2091 6.4787e+14 4.5896e+14
4874.2239 6.4787e+14 4.5913e+14
4874.2387 6.4787e+14 4.5931e+14
4874.2535 6.4787e+14 4.5948e+14
4874.2683 6.4787e+14 4.5966e+14
4874.2831 6.4787e+14 4.5983e+14
4874.2980 6.4786e+14 4.6001e+14
4874.3128 6.4786e+14 4.6018e+14
4874.3276 6.4786e+14 4.6036e+14
4874.3424 6.4786e+14 4.6053e+14
4874.3572 6.4786e+14 4.6071e+14
4874.3720 6.4786e+14 4.6088e+14
4874.3868 6.4786e+14 4.6106e+14
4874.4016 6.4785e+14 4.6123e+14
4874.4165 6.4785e+14 4.6140e+14
4874.4313 6.4785e+14 4.6158e+14
4874.4461 6.4785e+14 4.6175e+14
4874.4609 6.4785e+14 4.6193e+14
4874.4757 6.4785e+14 4.6210e+14
4874.4905 6.4785e+14 4.6227e+14
4874.5053 6.4784e+14 4.6245e+14
4874.5201 6.4784e+14 4.6262e+14
4874.5350 6.4784e+14 4.6279e+14
4874.5498 6.4784e+14 4.6296e+14
4874.5646 6.4784e+14 4.6314e+14
4874.5794 6.4784e+14 4.6331e+14
4874.5942 6.4784e+14 4.6348e+14
4874.6090 6.4783e+14 4.6365e+14
4874.6238 6.4783e+14 4.6383e+14
4874.6386 6.4783e+14 4.6400e+14
4874.6535 6.4783e+14 4.6417e+14
4874.6683 6.4783e+14 4.6434e+14
4874.6831 6.4783e+14 4.6451e+14
4874.6979 6.4783e+14 4.6469e+14
4874.7127 6.4783e+14 4.6486e+14
4874.7275 6.4782e+14 4.6503e+14
4874.7423 6.4782e+14 4.6520e+14
4874.7571 6.4782e+14 4.6537e+14
4874.7720 6.4782e+14 4.6554e+14
4874.7868 6.4782e+14 4.6571e+14
4874.8016 6.4782e+14 4.6588e+14
4874.8164 6.4782e+14 4.6605e+14
4874.8312 6.4781e+14 4.6622e+14
4874.8460 6.4781e+14 4.6639e+14
4874.8608 6.4781e+14 4.6656e+14
4874.8756 6.4781e+14 4.6673e+14
4874.8905 6.4781e+14 4.6690e+14
4874.9053 6.4781e+14 4.6707e+14
4874.9201 6.4781e+14 4.6724e+14
4874.9349 6.4780e+14 4.6741e+14
4874.9497 6.4780e+14 4.6758e+14
4874.9645 6.4780e+14 4.6775e+14
4874.9793 6.4780e+14 4.6792e+14
4874.9941 6.4780e+14 4.6809e+14
4875.0090 6.4780e+14 4.6826e+14
4875.0238 6.4780e+14 4.6843e+14
4875.0386 6.4779e+14 4.6860e+14
4875.0534 6.4779e+14 4.6876e+14
4875.0682 6.4779e+14 4.6893e+14
4875.0830 6.4779e+14 4.6910e+14
4875.0978 6.4779e+14 4.6927e+14
4875.1126 6.4779e+14 4.6944e+14
4875.1275 6.4779e+14 4.6960e+14
4875.1423 6.4778e+14 4.6977e+14
4875.1571 6.4778e+14 4.6994e+14
4875.1719 6.4778e+14 4.7011e+14
4875.1867 6.4778e+14 4.7027e+14
4875.2015 6.4778e+14 4.7044e+14
4875.2163 6.4778e+14 4.7061e+14
4875.2311 6.4778e+14 4.7077e+14
4875.2460 6.4777e+14 4.7094e+14
4875.2608 6.4777e+14 4.7111e+14
4875.2756 6.4777e+14 4.7127e+14
4875.2904 6.4777e+14 4.7144e+14
4875.3052 6.4777e+14 4.7161e+14
4875.3200 6.4777e+14 4.7177e+14
4875.3348 6.4777e+14 4.7194e+14
4875.3496 6.4776e+14 4.7210e+14
4875.3645 6.4776e+14 4.7227e+14
4875.3793 6.4776e+14 4.7243e+14
4875.3941 6.4776e+14 4.7260e+14
4875.4089 6.4776e+14 4.7276e+14
4875.4237 6.4776e+14 4.7293e+14
4875.4385 6.4776e+14 4.7309e+14
4875.4533 6.4775e+14 4.7326e+14
4875.4681 6.4775e+14 4.7342e+14
4875.4830 6.4775e+14 4.7359e+14
4875.4978 6.4775e+14 4.7375e+14
4875.5126 6.4775e+14 4.7392e+14
4875.5274 6.4775e+14 4.7408e+14
4875.5422 6.4775e+14 4.7424e+14
4875.5570 6.4774e+14 4.7441e+14
4875.5718 6.4774e+14 4.7457e+14
4875.5866 6.4774e+14 4.7473e+14
4875.6015 6.4774e+14 4.7490e+14
4875.6163 6.4774e+14 4.7506e+14
4875.6311 6.4774e+14 4.7522e+14
4875.6459 6.4774e+14 4.7539e+14
4875.6607 6.4773e+14 4.7555e+14
4875.6755 6.4773e+14 4.7571e+14
4875.6903 6.4773e+14 4.7587e+14
4875.7051 6.4773e+14 4.7604e+14
4875.7200 6.4773e+14 4.7620e+14
4875.7348 6.4773e+14 4.7636e+14
4875.7496 6.4773e+14 4.7652e+14
4875.7644 6.4772e+14 4.7668e+14
4875.7792 6.4772e+14 4.7685e+14
4875.7940 6.4772e+14 4.7701e+14
4875.8088 6.4772e+14 4.7717e+14
4875.8236 6.4772e+14 4.7733e+14
4875.8385 6.4772e+14 4.7749e+14
4875.8533 6.4772e+14 4.7765e+14
4875.8681 6.4771e+14 4.7781e+14
4875.8829 6.4771e+14 4.7797e+14
4875.8977 6.4771e+14 4.7813e+14
4875.9125 6.4771e+14 4.7829e+14
4875.9273 6.4771e+14 4.7845e+14
4875.9421 6.4771e+14 4.7861e+14
4875.9570 6.4771e+14 4.7877e+14
4875.9718 6.4770e+14 4.7893e+14
4875.9866 6.4770e+14 4.7909e+14
4876.0014 6.4770e+14 4.7925e+14
4876.0162 6.4770e+14 4.7941e+14
4876.0310 6.4770e+14 4.7957e+14
4876.0458 6.4770e+14 4.7973e+14
4876.0606 6.4770e+14 4.7989e+14
4876.0755 6.4769e+14 4.8005e+14
4876.0903 6.4769e+14 4.8021e+14
4876.1051 6.4769e+14 4.8036e+14
