# Wavelength(Å) I_cont(erg/s/cm2/Å/sr) I_abs(erg/s/cm2/Å/sr)
4845.4727 1.1170e+15 4.8519e+10
4845.4885 1.1170e+15 4.7949e+10
4845.5044 1.1170e+15 4.7384e+10
4845.5202 1.1170e+15 4.6826e+10
4845.5360 1.1170e+15 4.6273e+10
4845.5519 1.1169e+15 4.5726e+10
4845.5677 1.1169e+15 4.5185e+10
4845.5836 1.1169e+15 4.4650e+10
4845.5994 1.1169e+15 4.4120e+10
4845.6152 1.1169e+15 4.3595e+10
4845.6311 1.1169e+15 4.3077e+10
4845.6469 1.1169e+15 4.2564e+10
4845.6627 1.1169e+15 4.2056e+10
4845.6786 1.1169e+15 4.1553e+10
4845.6944 1.1169e+15 4.1056e+10
4845.7102 1.1169e+15 4.0565e+10
4845.7261 1.1169e+15 4.0078e+10
4845.7419 1.1169e+15 3.9597e+10
4845.7577 1.1169e+15 3.9121e+10
4845.7736 1.1169e+15 3.8650e+10
4845.7894 1.1169e+15 3.8184e+10
4845.8052 1.1169e+15 3.7723e+10
4845.8211 1.1169e+15 3.7266e+10
4845.8369 1.1169e+15 3.6815e+10
4845.8527 1.1169e+15 3.6369e+10
4845.8686 1.1169e+15 3.5928e+10
4845.8844 1.1169e+15 3.5491e+10
4845.9003 1.1169e+15 3.5059e+10
4845.9161 1.1168e+15 3.4632e+10
4845.9319 1.1168e+15 3.4209e+10
4845.9478 1.1168e+15 3.3791e+10
4845.9636 1.1168e+15 3.3378e+10
4845.9794 1.1168e+15 3.2969e+10
4845.9953 1.1168e+15 3.2564e+10
4846.0111 1.1168e+15 3.2164e+10
4846.0269 1.1168e+15 3.1769e+10
4846.0428 1.1168e+15 3.1378e+10
4846.0586 1.1168e+15 3.0991e+10
4846.0744 1.1168e+15 3.0608e+10
4846.0903 1.1168e+15 3.0229e+10
4846.1061 1.1168e+15 2.9855e+10
4846.1219 1.1168e+15 2.9485e+10
4846.1378 1.1168e+15 2.9119e+10
4846.1536 1.1168e+15 2.8757e+10
4846.1695 1.1168e+15 2.8399e+10
4846.1853 1.1168e+15 2.8045e+10
4846.2011 1.1168e+15 2.7695e+10
4846.2170 1.1168e+15 2.7349e+10
4846.2328 1.1168e+15 2.7007e+10
4846.2486 1.1168e+15 2.6669e+10
4846.2645 1.1168e+15 2.6334e+10
4846.2803 1.1167e+15 2.6003e+10
4846.2961 1.1167e+15 2.5676e+10
4846.3120 1.1167e+15 2.5353e+10
4846.3278 1.1167e+15 2.5033e+10
4846.3436 1.1167e+15 2.4717e+10
4846.3595 1.1167e+15 2.4405e+10
4846.3753 1.1167e+15 2.4096e+10
4846.3911 1.1167e+15 2.3790e+10
4846.4070 1.1167e+15 2.3488e+10
4846.4228 1.1167e+15 2.3190e+10
4846.4387 1.1167e+15 2.2895e+10
4846.4545 1.1167e+15 2.2603e+10
4846.4703 1.1167e+15 2.2314e+10
4846.4862 1.1167e+15 2.2029e+10
4846.5020 1.1167e+15 2.1748e+10
4846.5178 1.1167e+15 2.1469e+10
4846.5337 1.1167e+15 2.1194e+10
4846.5495 1.1167e+15 2.0921e+10
4846.5653 1.1167e+15 2.0652e+10
4846.5812 1.1167e+15 2.0387e+10
4846.5970 1.1167e+15 2.0124e+10
4846.6128 1.1167e+15 1.9864e+10
4846.6287 1.1167e+15 1.9607e+10
4846.6445 1.1166e+15 1.9353e+10
4846.6603 1.1166e+15 1.9103e+10
4846.6762 1.1166e+15 1.8855e+10
4846.6920 1.1166e+15 1.8610e+10
4846.7079 1.1166e+15 1.8368e+10
4846.7237 1.1166e+15 1.8129e+10
4846.7395 1.1166e+15 1.7892e+10
4846.7554 1.1166e+15 1.7658e+10
4846.7712 1.1166e+15 1.7428e+10
4846.7870 1.1166e+15 1.7199e+10
4846.8029 1.1166e+15 1.6974e+10
4846.8187 1.1166e+15 1.6751e+10
4846.8345 1.1166e+15 1.6531e+10
4846.8504 1.1166e+15 1.6313e+10
4846.8662 1.1166e+15 1.6098e+10
4846.8820 1.1166e+15 1.5886e+10
4846.8979 1.1166e+15 1.5676e+10
4846.9137 1.1166e+15 1.5469e+10
4846.9295 1.1166e+15 1.5264e+10
4846.9454 1.1166e+15 1.5062e+10
4846.9612 1.1166e+15 1.4862e+10
4846.9770 1.1166e+15 1.4664e+10
4846.9929 1.1166e+15 1.4469e+10
4847.0087 1.1165e+15 1.4276e+10
4847.0246 1.1165e+15 1.4086e+10
4847.0404 1.1165e+15 1.3897e+10
4847.0562 1.1165e+15 1.3711e+10
4847.0721 1.1165e+15 1.3528e+10
4847.0879 1.1165e+15 1.3346e+10
4847.1037 1.1165e+15 1.3167e+10
4847.1196 1.1165e+15 1.2990e+10
4847.1354 1.1165e+15 1.2815e+10
4847.1512 1.1165e+15 1.2642e+10
4847.1671 1.1165e+15 1.2472e+10
4847.1829 1.1165e+15 1.2303e+10
4847.1987 1.1165e+15 1.2137e+10
4847.2146 1.1165e+15 1.1972e+10
4847.2304 1.1165e+15 1.1810e+10
4847.2462 1.1165e+15 1.1650e+10
4847.2621 1.1165e+15 1.1491e+10
4847.2779 1.1165e+15 1.1335e+10
4847.2938 1.1165e+15 1.1180e+10
4847.3096 1.1165e+15 1.1028e+10
4847.3254 1.1165e+15 1.0877e+10
4847.3413 1.1165e+15 1.0728e+10
4847.3571 1.1164e+15 1.0581e+10
4847.3729 1.1164e+15 1.0436e+10
4847.3888 1.1164e+15 1.0293e+10
4847.4046 1.1164e+15 1.0151e+10
4847.4204 1.1164e+15 1.0011e+10
4847.4363 1.1164e+15 9.8732e+09
4847.4521 1.1164e+15 9.7369e+09
4847.4679 1.1164e+15 9.6024e+09
4847.4838 1.1164e+15 9.4695e+09
4847.4996 1.1164e+15 9.3383e+09
4847.5154 1.1164e+15 9.2088e+09
4847.5313 1.1164e+15 9.0809e+09
4847.5471 1.1164e+15 8.9546e+09
4847.5630 1.1164e+15 8.8299e+09
4847.5788 1.1164e+15 8.7069e+09
4847.5946 1.1164e+15 8.5853e+09
4847.6105 1.1164e+15 8.4654e+09
4847.6263 1.1164e+15 8.3469e+09
4847.6421 1.1164e+15 8.2300e+09
4847.6580 1.1164e+15 8.1146e+09
4847.6738 1.1164e+15 8.0007e+09
4847.6896 1.1164e+15 7.8882e+09
4847.7055 1.1164e+15 7.7771e+09
4847.7213 1.1163e+15 7.6675e+09
4847.7371 1.1163e+15 7.5593e+09
4847.7530 1.1163e+15 7.4526e+09
4847.7688 1.1163e+15 7.3471e+09
4847.7846 1.1163e+15 7.2431e+09
4847.8005 1.1163e+15 7.1404e+09
4847.8163 1.1163e+15 7.0390e+09
4847.8322 1.1163e+15 6.9390e+09
4847.8480 1.1163e+15 6.8402e+09
4847.8638 1.1163e+15 6.7428e+09
4847.8797 1.1163e+15 6.6466e+09
4847.8955 1.1163e+15 6.5517e+09
4847.9113 1.1163e+15 6.4580e+09
4847.9272 1.1163e+15 6.3656e+09
4847.9430 1.1163e+15 6.2743e+09
4847.9588 1.1163e+15 6.1843e+09
4847.9747 1.1163e+15 6.0954e+09
4847.9905 1.1163e+15 6.0078e+09
4848.0063 1.1163e+15 5.9212e+09
4848.0222 1.1163e+15 5.8359e+09
4848.0380 1.1163e+15 5.7516e+09
4848.0538 1.1163e+15 5.6685e+09
4848.0697 1.1163e+15 5.5865e+09
4848.0855 1.1162e+15 5.5055e+09
4848.1013 1.1162e+15 5.4257e+09
4848.1172 1.1162e+15 5.3469e+09
4848.1330 1.1162e+15 5.2692e+09
4848.1489 1.1162e+15 5.1925e+09
4848.1647 1.1162e+15 5.1168e+09
4848.1805 1.1162e+15 5.0421e+09
4848.1964 1.1162e+15 4.9685e+09
4848.2122 1.1162e+15 4.8958e+09
4848.2280 1.1162e+15 4.8242e+09
4848.2439 1.1162e+15 4.7534e+09
4848.2597 1.1162e+15 4.6837e+09
4848.2755 1.1162e+15 4.6149e+09
4848.2914 1.1162e+15 4.5470e+09
4848.3072 1.1162e+15 4.4800e+09
4848.3230 1.1162e+15 4.4140e+09
4848.3389 1.1162e+15 4.3488e+09
4848.3547 1.1162e+15 4.2845e+09
4848.3705 1.1162e+15 4.2212e+09
4848.3864 1.1162e+15 4.1586e+09
4848.4022 1.1162e+15 4.0970e+09
4848.4181 1.1162e+15 4.0361e+09
4848.4339 1.1162e+15 3.9761e+09
4848.4497 1.1161e+15 3.9170e+09
4848.4656 1.1161e+15 3.8586e+09
4848.4814 1.1161e+15 3.8011e+09
4848.4972 1.1161e+15 3.7443e+09
4848.5131 1.1161e+15 3.6883e+09
4848.5289 1.1161e+15 3.6331e+09
4848.5447 1.1161e+15 3.5787e+09
4848.5606 1.1161e+15 3.5250e+09
4848.5764 1.1161e+15 3.4721e+09
4848.5922 1.1161e+15 3.4199e+09
4848.6081 1.1161e+15 3.3684e+09
4848.6239 1.1161e+15 3.3177e+09
4848.6397 1.1161e+15 3.2676e+09
4848.6556 1.1161e+15 3.2183e+09
4848.6714 1.1161e+15 3.1696e+09
4848.6873 1.1161e+15 3.1216e+09
4848.7031 1.1161e+15 3.0743e+09
4848.7189 1.1161e+15 3.0277e+09
4848.7348 1.1161e+15 2.9817e+09
4848.7506 1.1161e+15 2.9364e+09
4848.7664 1.1161e+15 2.8917e+09
4848.7823 1.1161e+15 2.8476e+09
4848.7981 1.1161e+15 2.8042e+09
4848.8139 1.1160e+15 2.7614e+09
4848.8298 1.1160e+15 2.7191e+09
4848.8456 1.1160e+15 2.6775e+09
4848.8614 1.1160e+15 2.6365e+09
4848.8773 1.1160e+15 2.5961e+09
4848.8931 1.1160e+15 2.5562e+09
4848.9089 1.1160e+15 2.5169e+09
4848.9248 1.1160e+15 2.4782e+09
4848.9406 1.1160e+15 2.4400e+09
4848.9565 1.1160e+15 2.4023e+09
4848.9723 1.1160e+15 2.3652e+09
4848.9881 1.1160e+15 2.3287e+09
4849.0040 1.1160e+15 2.2927e+09
4849.0198 1.1160e+15 2.2571e+09
4849.0356 1.1160e+15 2.2221e+09
4849.0515 1.1160e+15 2.1876e+09
4849.0673 1.1160e+15 2.1536e+09
4849.0831 1.1160e+15 2.1201e+09
4849.0990 1.1160e+15 2.0871e+09
4849.1148 1.1160e+15 2.0546e+09
4849.1306 1.1160e+15 2.0225e+09
4849.1465 1.1160e+15 1.9909e+09
4849.1623 1.1160e+15 1.9598e+09
4849.1781 1.1159e+15 1.9291e+09
4849.1940 1.1159e+15 1.8988e+09
4849.2098 1.1159e+15 1.8690e+09
4849.2256 1.1159e+15 1.8397e+09
4849.2415 1.1159e+15 1.8107e+09
4849.2573 1.1159e+15 1.7822e+09
4849.2732 1.1159e+15 1.7542e+09
4849.2890 1.1159e+15 1.7265e+09
4849.3048 1.1159e+15 1.6992e+09
4849.3207 1.1159e+15 1.6724e+09
4849.3365 1.1159e+15 1.6459e+09
4849.3523 1.1159e+15 1.6198e+09
4849.3682 1.1159e+15 1.5941e+09
4849.3840 1.1159e+15 1.5688e+09
4849.3998 1.1159e+15 1.5439e+09
4849.4157 1.1159e+15 1.5193e+09
4849.4315 1.1159e+15 1.4951e+09
4849.4473 1.1159e+15 1.4713e+09
4849.4632 1.1159e+15 1.4478e+09
4849.4790 1.1159e+15 1.4247e+09
4849.4948 1.1159e+15 1.4019e+09
4849.5107 1.1159e+15 1.3795e+09
4849.5265 1.1159e+15 1.3574e+09
4849.5424 1.1158e+15 1.3356e+09
4849.5582 1.1158e+15 1.3142e+09
4849.5740 1.1158e+15 1.2931e+09
4849.5899 1.1158e+15 1.2723e+09
4849.6057 1.1158e+15 1.2518e+09
4849.6215 1.1158e+15 1.2316e+09
4849.6374 1.1158e+15 1.2117e+09
4849.6532 1.1158e+15 1.1921e+09
4849.6690 1.1158e+15 1.1729e+09
4849.6849 1.1158e+15 1.1539e+09
4849.7007 1.1158e+15 1.1352e+09
4849.7165 1.1158e+15 1.1168e+09
4849.7324 1.1158e+15 1.0987e+09
4849.7482 1.1158e+15 1.0808e+09
4849.7640 1.1158e+15 1.0632e+09
4849.7799 1.1158e+15 1.0459e+09
4849.7957 1.1158e+15 1.0289e+09
4849.8116 1.1158e+15 1.0121e+09
4849.8274 1.1158e+15 9.9555e+08
4849.8432 1.1158e+15 9.7928e+08
4849.8591 1.1158e+15 9.6326e+08
4849.8749 1.1158e+15 9.4749e+08
4849.8907 1.1158e+15 9.3195e+08
4849.9066 1.1157e+15 9.1666e+08
4849.9224 1.1157e+15 9.0161e+08
4849.9382 1.1157e+15 8.8678e+08
4849.9541 1.1157e+15 8.7219e+08
4849.9699 1.1157e+15 8.5782e+08
4849.9857 1.1157e+15 8.4368e+08
4850.0016 1.1157e+15 8.2976e+08
4850.0174 1.1157e+15 8.1605e+08
4850.0332 1.1157e+15 8.0256e+08
4850.0491 1.1157e+15 7.8928e+08
4850.0649 1.1157e+15 7.7620e+08
4850.0808 1.1157e+15 7.6333e+08
4850.0966 1.1157e+15 7.5066e+08
4850.1124 1.1157e+15 7.3819e+08
4850.1283 1.1157e+15 7.2592e+08
4850.1441 1.1157e+15 7.1384e+08
4850.1599 1.1157e+15 7.0194e+08
4850.1758 1.1157e+15 6.9024e+08
4850.1916 1.1157e+15 6.7872e+08
4850.2074 1.1157e+15 6.6738e+08
4850.2233 1.1157e+15 6.5622e+08
4850.2391 1.1157e+15 6.4524e+08
4850.2549 1.1157e+15 6.3443e+08
4850.2708 1.1156e+15 6.2380e+08
4850.2866 1.1156e+15 6.1333e+08
4850.3024 1.1156e+15 6.0303e+08
4850.3183 1.1156e+15 5.9289e+08
4850.3341 1.1156e+15 5.8291e+08
4850.3499 1.1156e+15 5.7310e+08
4850.3658 1.1156e+15 5.6344e+08
4850.3816 1.1156e+15 5.5393e+08
4850.3975 1.1156e+15 5.4458e+08
4850.4133 1.1156e+15 5.3537e+08
4850.4291 1.1156e+15 5.2632e+08
4850.4450 1.1156e+15 5.1741e+08
4850.4608 1.1156e+15 5.0864e+08
4850.4766 1.1156e+15 5.0001e+08
4850.4925 1.1156e+15 4.9152e+08
4850.5083 1.1156e+15 4.8317e+08
4850.5241 1.1156e+15 4.7496e+08
4850.5400 1.1156e+15 4.6687e+08
4850.5558 1.1156e+15 4.5892e+08
4850.5716 1.1156e+15 4.5110e+08
4850.5875 1.1156e+15 4.4340e+08
4850.6033 1.1156e+15 4.3583e+08
4850.6191 1.1156e+15 4.2838e+08
4850.6350 1.1155e+15 4.2105e+08
4850.6508 1.1155e+15 4.1384e+08
4850.6667 1.1155e+15 4.0675e+08
4850.6825 1.1155e+15 3.9977e+08
4850.6983 1.1155e+15 3.9291e+08
4850.7142 1.1155e+15 3.8616e+08
4850.7300 1.1155e+15 3.7952e+08
4850.7458 1.1155e+15 3.7299e+08
4850.7617 1.1155e+15 3.6657e+08
4850.7775 1.1155e+15 3.6025e+08
4850.7933 1.1155e+15 3.5404e+08
4850.8092 1.1155e+15 3.4793e+08
4850.8250 1.1155e+15 3.4191e+08
4850.8408 1.1155e+15 3.3600e+08
4850.8567 1.1155e+15 3.3019e+08
4850.8725 1.1155e+15 3.2447e+08
4850.8883 1.1155e+15 3.1885e+08
4850.9042 1.1155e+15 3.1332e+08
4850.9200 1.1155e+15 3.0788e+08
4850.9359 1.1155e+15 3.0253e+08
4850.9517 1.1155e+15 2.9727e+08
4850.9675 1.1155e+15 2.9209e+08
4850.9834 1.1155e+15 2.8701e+08
4850.9992 1.1154e+15 2.8201e+08
4851.0150 1.1154e+15 2.7709e+08
4851.0309 1.1154e+15 2.7225e+08
4851.0467 1.1154e+15 2.6750e+08
4851.0625 1.1154e+15 2.6282e+08
4851.0784 1.1154e+15 2.5822e+08
4851.0942 1.1154e+15 2.5370e+08
4851.1100 1.1154e+15 2.4926e+08
4851.1259 1.1154e+15 2.4489e+08
4851.1417 1.1154e+15 2.4059e+08
4851.1575 1.1154e+15 2.3636e+08
4851.1734 1.1154e+15 2.3221e+08
4851.1892 1.1154e+15 2.2813e+08
4851.2051 1.1154e+15 2.2411e+08
4851.2209 1.1154e+15 2.2017e+08
4851.2367 1.1154e+15 2.1629e+08
4851.2526 1.1154e+15 2.1247e+08
4851.2684 1.1154e+15 2.0872e+08
4851.2842 1.1154e+15 2.0503e+08
4851.3001 1.1154e+15 2.0141e+08
4851.3159 1.1154e+15 1.9785e+08
4851.3317 1.1154e+15 1.9435e+08
4851.3476 1.1153e+15 1.9090e+08
4851.3634 1.1153e+15 1.8752e+08
4851.3792 1.1153e+15 1.8419e+08
4851.3951 1.1153e+15 1.8092e+08
4851.4109 1.1153e+15 1.7771e+08
4851.4267 1.1153e+15 1.7455e+08
4851.4426 1.1153e+15 1.7145e+08
4851.4584 1.1153e+15 1.6840e+08
4851.4742 1.1153e+15 1.6540e+08
4851.4901 1.1153e+15 1.6245e+08
4851.5059 1.1153e+15 1.5955e+08
4851.5218 1.1153e+15 1.5671e+08
4851.5376 1.1153e+15 1.5391e+08
4851.5534 1.1153e+15 1.5116e+08
4851.5693 1.1153e+15 1.4846e+08
4851.5851 1.1153e+15 1.4580e+08
4851.6009 1.1153e+15 1.4319e+08
4851.6168 1.1153e+15 1.4062e+08
4851.6326 1.1153e+15 1.3810e+08
4851.6484 1.1153e+15 1.3563e+08
4851.6643 1.1153e+15 1.3319e+08
4851.6801 1.1153e+15 1.3080e+08
4851.6959 1.1153e+15 1.2845e+08
4851.7118 1.1152e+15 1.2614e+08
4851.7276 1.1152e+15 1.2387e+08
4851.7434 1.1152e+15 1.2164e+08
4851.7593 1.1152e+15 1.1945e+08
4851.7751 1.1152e+15 1.1730e+08
4851.7910 1.1152e+15 1.1518e+08
4851.8068 1.1152e+15 1.1310e+08
4851.8226 1.1152e+15 1.1106e+08
4851.8385 1.1152e+15 1.0905e+08
4851.8543 1.1152e+15 1.0708e+08
4851.8701 1.1152e+15 1.0514e+08
4851.8860 1.1152e+15 1.0324e+08
4851.9018 1.1152e+15 1.0137e+08
4851.9176 1.1152e+15 9.9535e+07
4851.9335 1.1152e+15 9.7730e+07
4851.9493 1.1152e+15 9.5957e+07
4851.9651 1.1152e+15 9.4216e+07
4851.9810 1.1152e+15 9.2505e+07
4851.9968 1.1152e+15 9.0824e+07
4852.0126 1.1152e+15 8.9173e+07
4852.0285 1.1152e+15 8.7551e+07
4852.0443 1.1152e+15 8.5958e+07
4852.0602 1.1152e+15 8.4392e+07
4852.0760 1.1151e+15 8.2855e+07
4852.0918 1.1151e+15 8.1345e+07
4852.1077 1.1151e+15 7.9861e+07
4852.1235 1.1151e+15 7.8404e+07
4852.1393 1.1151e+15 7.6973e+07
4852.1552 1.1151e+15 7.5567e+07
4852.1710 1.1151e+15 7.4186e+07
4852.1868 1.1151e+15 7.2830e+07
4852.2027 1.1151e+15 7.1498e+07
4852.2185 1.1151e+15 7.0189e+07
4852.2343 1.1151e+15 6.8904e+07
4852.2502 1.1151e+15 6.7642e+07
4852.2660 1.1151e+15 6.6402e+07
4852.2818 1.1151e+15 6.5185e+07
4852.2977 1.1151e+15 6.3989e+07
4852.3135 1.1151e+15 6.2815e+07
4852.3294 1.1151e+15 6.1662e+07
4852.3452 1.1151e+15 6.0529e+07
4852.3610 1.1151e+15 5.9417e+07
4852.3769 1.1151e+15 5.8324e+07
4852.3927 1.1151e+15 5.7252e+07
4852.4085 1.1151e+15 5.6198e+07
4852.4244 1.1151e+15 5.5164e+07
4852.4402 1.1150e+15 5.4148e+07
4852.4560 1.1150e+15 5.3150e+07
4852.4719 1.1150e+15 5.2171e+07
4852.4877 1.1150e+15 5.1209e+07
4852.5035 1.1150e+15 5.0264e+07
4852.5194 1.1150e+15 4.9336e+07
4852.5352 1.1150e+15 4.8426e+07
4852.5510 1.1150e+15 4.7531e+07
4852.5669 1.1150e+15 4.6653e+07
4852.5827 1.1150e+15 4.5791e+07
4852.5985 1.1150e+15 4.4944e+07
4852.6144 1.1150e+15 4.4113e+07
4852.6302 1.1150e+15 4.3297e+07
4852.6461 1.1150e+15 4.2495e+07
4852.6619 1.1150e+15 4.1709e+07
4852.6777 1.1150e+15 4.0936e+07
4852.6936 1.1150e+15 4.0178e+07
4852.7094 1.1150e+15 3.9433e+07
4852.7252 1.1150e+15 3.8702e+07
4852.7411 1.1150e+15 3.7984e+07
4852.7569 1.1150e+15 3.7279e+07
4852.7727 1.1150e+15 3.6587e+07
4852.7886 1.1150e+15 3.5908e+07
4852.8044 1.1149e+15 3.5241e+07
4852.8202 1.1149e+15 3.4587e+07
4852.8361 1.1149e+15 3.3944e+07
4852.8519 1.1149e+15 3.3313e+07
4852.8677 1.1149e+15 3.2694e+07
4852.8836 1.1149e+15 3.2086e+07
4852.8994 1.1149e+15 3.1489e+07
4852.9153 1.1149e+15 3.0903e+07
4852.9311 1.1149e+15 3.0328e+07
4852.9469 1.1149e+15 2.9763e+07
4852.9628 1.1149e+15 2.9209e+07
4852.9786 1.1149e+15 2.8665e+07
4852.9944 1.1149e+15 2.8131e+07
4853.0103 1.1149e+15 2.7606e+07
4853.0261 1.1149e+15 2.7092e+07
4853.0419 1.1149e+15 2.6587e+07
4853.0578 1.1149e+15 2.6091e+07
4853.0736 1.1149e+15 2.5604e+07
4853.0894 1.1149e+15 2.5126e+07
4853.1053 1.1149e+15 2.4658e+07
4853.1211 1.1149e+15 2.4197e+07
4853.1369 1.1149e+15 2.3746e+07
4853.1528 1.1149e+15 2.3302e+07
4853.1686 1.1148e+15 2.2867e+07
4853.1845 1.1148e+15 2.2440e+07
4853.2003 1.1148e+15 2.2021e+07
4853.2161 1.1148e+15 2.1609e+07
4853.2320 1.1148e+15 2.1205e+07
4853.2478 1.1148e+15 2.0809e+07
4853.2636 1.1148e+15 2.0420e+07
4853.2795 1.1148e+15 2.0038e+07
4853.2953 1.1148e+15 1.9664e+07
4853.3111 1.1148e+15 1.9296e+07
4853.3270 1.1148e+15 1.8935e+07
4853.3428 1.1148e+15 1.8581e+07
4853.3586 1.1148e+15 1.8233e+07
4853.3745 1.1148e+15 1.7892e+07
4853.3903 1.1148e+15 1.7557e+07
4853.4061 1.1148e+15 1.7228e+07
4853.4220 1.1148e+15 1.6906e+07
4853.4378 1.1148e+15 1.6590e+07
4853.4537 1.1148e+15 1.6279e+07
4853.4695 1.1148e+15 1.5974e+07
4853.4853 1.1148e+15 1.5675e+07
4853.5012 1.1148e+15 1.5382e+07
4853.5170 1.1148e+15 1.5094e+07
4853.5328 1.1147e+15 1.4811e+07
4853.5487 1.1147e+15 1.4534e+07
4853.5645 1.1147e+15 1.4261e+07
4853.5803 1.1147e+15 1.3994e+07
4853.5962 1.1147e+15 1.3732e+07
4853.6120 1.1147e+15 1.3475e+07
4853.6278 1.1147e+15 1.3223e+07
4853.6437 1.1147e+15 1.2975e+07
4853.6595 1.1147e+15 1.2732e+07
4853.6753 1.1147e+15 1.2494e+07
4853.6912 1.1147e+15 1.2260e+07
4853.7070 1.1147e+15 1.2030e+07
4853.7229 1.1147e+15 1.1805e+07
4853.7387 1.1147e+15 1.1584e+07
4853.7545 1.1147e+15 1.1367e+07
4853.7704 1.1147e+15 1.1154e+07
4853.7862 1.1147e+15 1.0945e+07
4853.8020 1.1147e+15 1.0740e+07
4853.8179 1.1147e+15 1.0539e+07
4853.8337 1.1147e+15 1.0342e+07
4853.8495 1.1147e+15 1.0148e+07
4853.8654 1.1147e+15 9.9581e+06
4853.8812 1.1147e+15 9.7717e+06
4853.8970 1.1146e+15 9.5889e+06
4853.9129 1.1146e+15 9.4094e+06
4853.9287 1.1146e+15 9.2334e+06
4853.9445 1.1146e+15 9.0606e+06
4853.9604 1.1146e+15 8.8911e+06
4853.9762 1.1146e+15 8.7248e+06
4853.9920 1.1146e+15 8.5617e+06
4854.0079 1.1146e+15 8.4016e+06
4854.0237 1.1146e+15 8.2445e+06
4854.0396 1.1146e+15 8.0904e+06
4854.0554 1.1146e+15 7.9392e+06
4854.0712 1.1146e+15 7.7908e+06
4854.0871 1.1146e+15 7.6453e+06
4854.1029 1.1146e+15 7.5025e+06
4854.1187 1.1146e+15 7.3624e+06
4854.1346 1.1146e+15 7.2249e+06
4854.1504 1.1146e+15 7.0900e+06
4854.1662 1.1146e+15 6.9577e+06
4854.1821 1.1146e+15 6.8279e+06
4854.1979 1.1146e+15 6.7005e+06
4854.2137 1.1146e+15 6.5755e+06
4854.2296 1.1146e+15 6.4529e+06
4854.2454 1.1146e+15 6.3326e+06
4854.2612 1.1145e+15 6.2146e+06
4854.2771 1.1145e+15 6.0988e+06
4854.2929 1.1145e+15 5.9852e+06
4854.3088 1.1145e+15 5.8737e+06
4854.3246 1.1145e+15 5.7644e+06
4854.3404 1.1145e+15 5.6571e+06
4854.3563 1.1145e+15 5.5519e+06
4854.3721 1.1145e+15 5.4486e+06
4854.3879 1.1145e+15 5.3473e+06
4854.4038 1.1145e+15 5.2479e+06
4854.4196 1.1145e+15 5.1504e+06
4854.4354 1.1145e+15 5.0547e+06
4854.4513 1.1145e+15 4.9609e+06
4854.4671 1.1145e+15 4.8688e+06
4854.4829 1.1145e+15 4.7785e+06
4854.4988 1.1145e+15 4.6898e+06
4854.5146 1.1145e+15 4.6029e+06
4854.5304 1.1145e+15 4.5176e+06
4854.5463 1.1145e+15 4.4339e+06
4854.5621 1.1145e+15 4.3518e+06
4854.5780 1.1145e+15 4.2712e+06
4854.5938 1.1145e+15 4.1922e+06
4854.6096 1.1144e+15 4.1147e+06
4854.6255 1.1144e+15 4.0386e+06
4854.6413 1.1144e+15 3.9640e+06
4854.6571 1.1144e+15 3.8908e+06
4854.6730 1.1144e+15 3.8189e+06
4854.6888 1.1144e+15 3.7485e+06
4854.7046 1.1144e+15 3.6793e+06
4854.7205 1.1144e+15 3.6115e+06
4854.7363 1.1144e+15 3.5450e+06
4854.7521 1.1144e+15 3.4797e+06
4854.7680 1.1144e+15 3.4156e+06
4854.7838 1.1144e+15 3.3528e+06
4854.7996 1.1144e+15 3.2912e+06
4854.8155 1.1144e+15 3.2307e+06
4854.8313 1.1144e+15 3.1713e+06
4854.8472 1.1144e+15 3.1131e+06
4854.8630 1.1144e+15 3.0560e+06
4854.8788 1.1144e+15 3.0000e+06
4854.8947 1.1144e+15 2.9450e+06
4854.9105 1.1144e+15 2.8911e+06
4854.9263 1.1144e+15 2.8382e+06
4854.9422 1.1144e+15 2.7863e+06
4854.9580 1.1144e+15 2.7353e+06
4854.9738 1.1143e+15 2.6854e+06
4854.9897 1.1143e+15 2.6363e+06
4855.0055 1.1143e+15 2.5882e+06
4855.0213 1.1143e+15 2.5410e+06
4855.0372 1.1143e+15 2.4947e+06
4855.0530 1.1143e+15 2.4493e+06
4855.0688 1.1143e+15 2.4047e+06
4855.0847 1.1143e+15 2.3610e+06
4855.1005 1.1143e+15 2.3181e+06
4855.1163 1.1143e+15 2.2760e+06
4855.1322 1.1143e+15 2.2347e+06
4855.1480 1.1143e+15 2.1942e+06
4855.1639 1.1143e+15 2.1545e+06
4855.1797 1.1143e+15 2.1155e+06
4855.1955 1.1143e+15 2.0772e+06
4855.2114 1.1143e+15 2.0396e+06
4855.2272 1.1143e+15 2.0028e+06
4855.2430 1.1143e+15 1.9667e+06
4855.2589 1.1143e+15 1.9312e+06
4855.2747 1.1143e+15 1.8964e+06
4855.2905 1.1143e+15 1.8622e+06
4855.3064 1.1143e+15 1.8287e+06
4855.3222 1.1143e+15 1.7959e+06
4855.3380 1.1142e+15 1.7636e+06
4855.3539 1.1142e+15 1.7320e+06
4855.3697 1.1142e+15 1.7009e+06
4855.3855 1.1142e+15 1.6705e+06
4855.4014 1.1142e+15 1.6406e+06
4855.4172 1.1142e+15 1.6112e+06
4855.4331 1.1142e+15 1.5825e+06
4855.4489 1.1142e+15 1.5542e+06
4855.4647 1.1142e+15 1.5265e+06
4855.4806 1.1142e+15 1.4993e+06
4855.4964 1.1142e+15 1.4726e+06
4855.5122 1.1142e+15 1.4464e+06
4855.5281 1.1142e+15 1.4208e+06
4855.5439 1.1142e+15 1.3955e+06
4855.5597 1.1142e+15 1.3708e+06
4855.5756 1.1142e+15 1.3465e+06
4855.5914 1.1142e+15 1.3227e+06
4855.6072 1.1142e+15 1.2993e+06
4855.6231 1.1142e+15 1.2764e+06
4855.6389 1.1142e+15 1.2539e+06
4855.6547 1.1142e+15 1.2318e+06
4855.6706 1.1142e+15 1.2101e+06
4855.6864 1.1142e+15 1.1888e+06
4855.7023 1.1141e+15 1.1680e+06
4855.7181 1.1141e+15 1.1475e+06
4855.7339 1.1141e+15 1.1274e+06
4855.7498 1.1141e+15 1.1076e+06
4855.7656 1.1141e+15 1.0883e+06
4855.7814 1.1141e+15 1.0693e+06
4855.7973 1.1141e+15 1.0506e+06
4855.8131 1.1141e+15 1.0323e+06
4855.8289 1.1141e+15 1.0144e+06
4855.8448 1.1141e+15 9.9674e+05
4855.8606 1.1141e+15 9.7944e+05
4855.8764 1.1141e+15 9.6246e+05
4855.8923 1.1141e+15 9.4580e+05
4855.9081 1.1141e+15 9.2944e+05
4855.9239 1.1141e+15 9.1339e+05
4855.9398 1.1141e+15 8.9763e+05
4855.9556 1.1141e+15 8.8217e+05
4855.9715 1.1141e+15 8.6699e+05
4855.9873 1.1141e+15 8.5209e+05
4856.0031 1.1141e+15 8.3747e+05
4856.0190 1.1141e+15 8.2312e+05
4856.0348 1.1141e+15 8.0903e+05
4856.0506 1.1141e+15 7.9520e+05
4856.0665 1.1140e+15 7.8163e+05
4856.0823 1.1140e+15 7.6831e+05
4856.0981 1.1140e+15 7.5523e+05
4856.1140 1.1140e+15 7.4239e+05
4856.1298 1.1140e+15 7.2979e+05
4856.1456 1.1140e+15 7.1743e+05
4856.1615 1.1140e+15 7.0528e+05
4856.1773 1.1140e+15 6.9337e+05
4856.1931 1.1140e+15 6.8167e+05
4856.2090 1.1140e+15 6.7018e+05
4856.2248 1.1140e+15 6.5891e+05
4856.2406 1.1140e+15 6.4784e+05
4856.2565 1.1140e+15 6.3697e+05
4856.2723 1.1140e+15 6.2630e+05
4856.2882 1.1140e+15 6.1583e+05
4856.3040 1.1140e+15 6.0555e+05
4856.3198 1.1140e+15 5.9546e+05
4856.3357 1.1140e+15 5.8555e+05
4856.3515 1.1140e+15 5.7582e+05
4856.3673 1.1140e+15 5.6627e+05
4856.3832 1.1140e+15 5.5689e+05
4856.3990 1.1140e+15 5.4768e+05
4856.4148 1.1140e+15 5.3864e+05
4856.4307 1.1139e+15 5.2976e+05
4856.4465 1.1139e+15 5.2105e+05
4856.4623 1.1139e+15 5.1249e+05
4856.4782 1.1139e+15 5.0409e+05
4856.4940 1.1139e+15 4.9584e+05
4856.5098 1.1139e+15 4.8774e+05
4856.5257 1.1139e+15 4.7978e+05
4856.5415 1.1139e+15 4.7197e+05
4856.5574 1.1139e+15 4.6430e+05
4856.5732 1.1139e+15 4.5677e+05
4856.5890 1.1139e+15 4.4937e+05
4856.6049 1.1139e+15 4.4211e+05
4856.6207 1.1139e+15 4.3498e+05
4856.6365 1.1139e+15 4.2798e+05
4856.6524 1.1139e+15 4.2110e+05
4856.6682 1.1139e+15 4.1434e+05
4856.6840 1.1139e+15 4.0771e+05
4856.6999 1.1139e+15 4.0119e+05
4856.7157 1.1139e+15 3.9479e+05
4856.7315 1.1139e+15 3.8851e+05
4856.7474 1.1139e+15 3.8234e+05
4856.7632 1.1139e+15 3.7628e+05
4856.7790 1.1139e+15 3.7032e+05
4856.7949 1.1138e+15 3.6448e+05
4856.8107 1.1138e+15 3.5873e+05
4856.8266 1.1138e+15 3.5309e+05
4856.8424 1.1138e+15 3.4755e+05
4856.8582 1.1138e+15 3.4211e+05
4856.8741 1.1138e+15 3.3676e+05
4856.8899 1.1138e+15 3.3151e+05
4856.9057 1.1138e+15 3.2635e+05
4856.9216 1.1138e+15 3.2128e+05
4856.9374 1.1138e+15 3.1631e+05
4856.9532 1.1138e+15 3.1142e+05
4856.9691 1.1138e+15 3.0661e+05
4856.9849 1.1138e+15 3.0189e+05
4857.0007 1.1138e+15 2.9726e+05
4857.0166 1.1138e+15 2.9270e+05
4857.0324 1.1138e+15 2.8823e+05
4857.0482 1.1138e+15 2.8383e+05
4857.0641 1.1138e+15 2.7951e+05
4857.0799 1.1138e+15 2.7527e+05
4857.0958 1.1138e+15 2.7110e+05
4857.1116 1.1138e+15 2.6700e+05
4857.1274 1.1138e+15 2.6298e+05
4857.1433 1.1138e+15 2.5903e+05
4857.1591 1.1137e+15 2.5514e+05
4857.1749 1.1137e+15 2.5132e+05
4857.1908 1.1137e+15 2.4757e+05
4857.2066 1.1137e+15 2.4388e+05
4857.2224 1.1137e+15 2.4026e+05
4857.2383 1.1137e+15 2.3670e+05
4857.2541 1.1137e+15 2.3320e+05
4857.2699 1.1137e+15 2.2977e+05
4857.2858 1.1137e+15 2.2639e+05
4857.3016 1.1137e+15 2.2307e+05
4857.3174 1.1137e+15 2.1981e+05
4857.3333 1.1137e+15 2.1660e+05
4857.3491 1.1137e+15 2.1345e+05
4857.3649 1.1137e+15 2.1035e+05
4857.3808 1.1137e+15 2.0731e+05
4857.3966 1.1137e+15 2.0432e+05
4857.4125 1.1137e+15 2.0138e+05
4857.4283 1.1137e+15 1.9849e+05
4857.4441 1.1137e+15 1.9564e+05
4857.4600 1.1137e+15 1.9285e+05
4857.4758 1.1137e+15 1.9011e+05
4857.4916 1.1137e+15 1.8741e+05
4857.5075 1.1137e+15 1.8476e+05
4857.5233 1.1136e+15 1.8215e+05
4857.5391 1.1136e+15 1.7959e+05
4857.5550 1.1136e+15 1.7707e+05
4857.5708 1.1136e+15 1.7459e+05
4857.5866 1.1136e+15 1.7216e+05
4857.6025 1.1136e+15 1.6976e+05
4857.6183 1.1136e+15 1.6741e+05
4857.6341 1.1136e+15 1.6510e+05
4857.6500 1.1136e+15 1.6282e+05
4857.6658 1.1136e+15 1.6059e+05
4857.6817 1.1136e+15 1.5839e+05
4857.6975 1.1136e+15 1.5623e+05
4857.7133 1.1136e+15 1.5410e+05
4857.7292 1.1136e+15 1.5201e+05
4857.7450 1.1136e+15 1.4996e+05
4857.7608 1.1136e+15 1.4794e+05
4857.7767 1.1136e+15 1.4595e+05
4857.7925 1.1136e+15 1.4400e+05
4857.8083 1.1136e+15 1.4207e+05
4857.8242 1.1136e+15 1.4019e+05
4857.8400 1.1136e+15 1.3833e+05
4857.8558 1.1136e+15 1.3650e+05
4857.8717 1.1135e+15 1.3470e+05
4857.8875 1.1135e+15 1.3294e+05
4857.9033 1.1135e+15 1.3120e+05
4857.9192 1.1135e+15 1.2949e+05
4857.9350 1.1135e+15 1.2781e+05
4857.9509 1.1135e+15 1.2616e+05
4857.9667 1.1135e+15 1.2453e+05
4857.9825 1.1135e+15 1.2293e+05
4857.9984 1.1135e+15 1.2136e+05
4858.0142 1.1135e+15 1.1981e+05
4858.0300 1.1135e+15 1.1829e+05
4858.0459 1.1135e+15 1.1679e+05
4858.0617 1.1135e+15 1.1532e+05
4858.0775 1.1135e+15 1.1387e+05
4858.0934 1.1135e+15 1.1244e+05
4858.1092 1.1135e+15 1.1104e+05
4858.1250 1.1135e+15 1.0966e+05
4858.1409 1.1135e+15 1.0831e+05
4858.1567 1.1135e+15 1.0697e+05
4858.1725 1.1135e+15 1.0566e+05
4858.1884 1.1135e+15 1.0437e+05
4858.2042 1.1135e+15 1.0310e+05
4858.2201 1.1135e+15 1.0185e+05
4858.2359 1.1134e+15 1.0062e+05
4858.2517 1.1134e+15 9.9406e+04
4858.2676 1.1134e+15 9.8215e+04
4858.2834 1.1134e+15 9.7044e+04
4858.2992 1.1134e+15 9.5891e+04
4858.3151 1.1134e+15 9.4756e+04
4858.3309 1.1134e+15 9.3640e+04
4858.3467 1.1134e+15 9.2542e+04
4858.3626 1.1134e+15 9.1461e+04
4858.3784 1.1134e+15 9.0398e+04
4858.3942 1.1134e+15 8.9351e+04
4858.4101 1.1134e+15 8.8321e+04
4858.4259 1.1134e+15 8.7308e+04
4858.4417 1.1134e+15 8.6310e+04
4858.4576 1.1134e+15 8.5329e+04
4858.4734 1.1134e+15 8.4363e+04
4858.4892 1.1134e+15 8.3412e+04
4858.5051 1.1134e+15 8.2477e+04
4858.5209 1.1134e+15 8.1556e+04
4858.5368 1.1134e+15 8.0650e+04
4858.5526 1.1134e+15 7.9758e+04
4858.5684 1.1134e+15 7.8880e+04
4858.5843 1.1134e+15 7.8017e+04
4858.6001 1.1133e+15 7.7166e+04
4858.6159 1.1133e+15 7.6329e+04
4858.6318 1.1133e+15 7.5505e+04
4858.6476 1.1133e+15 7.4695e+04
4858.6634 1.1133e+15 7.3896e+04
4858.6793 1.1133e+15 7.3111e+04
4858.6951 1.1133e+15 7.2338e+04
4858.7109 1.1133e+15 7.1576e+04
4858.7268 1.1133e+15 7.0827e+04
4858.7426 1.1133e+15 7.0090e+04
4858.7584 1.1133e+15 6.9363e+04
4858.7743 1.1133e+15 6.8649e+04
4858.7901 1.1133e+15 6.7945e+04
4858.8060 1.1133e+15 6.7253e+04
4858.8218 1.1133e+15 6.6571e+04
4858.8376 1.1133e+15 6.5900e+04
4858.8535 1.1133e+15 6.5239e+04
4858.8693 1.1133e+15 6.4588e+04
4858.8851 1.1133e+15 6.3948e+04
4858.9010 1.1133e+15 6.3317e+04
4858.9168 1.1133e+15 6.2697e+04
4858.9326 1.1133e+15 6.2086e+04
4858.9485 1.1133e+15 6.1484e+04
4858.9643 1.1132e+15 6.0892e+04
4858.9801 1.1132e+15 6.0309e+04
4858.9960 1.1132e+15 5.9735e+04
4859.0118 1.1132e+15 5.9170e+04
4859.0276 1.1132e+15 5.8613e+04
4859.0435 1.1132e+15 5.8065e+04
4859.0593 1.1132e+15 5.7526e+04
4859.0752 1.1132e+15 5.6995e+04
4859.0910 1.1132e+15 5.6472e+04
4859.1068 1.1132e+15 5.5958e+04
4859.1227 1.1132e+15 5.5451e+04
4859.1385 1.1132e+15 5.4952e+04
4859.1543 1.1132e+15 5.4461e+04
4859.1702 1.1132e+15 5.3977e+04
4859.1860 1.1132e+15 5.3501e+04
4859.2018 1.1132e+15 5.3032e+04
4859.2177 1.1132e+15 5.2571e+04
4859.2335 1.1132e+15 5.2116e+04
4859.2493 1.1132e+15 5.1669e+04
4859.2652 1.1132e+15 5.1228e+04
4859.2810 1.1132e+15 5.0795e+04
4859.2968 1.1132e+15 5.0368e+04
4859.3127 1.1132e+15 4.9948e+04
4859.3285 1.1131e+15 4.9534e+04
4859.3444 1.1131e+15 4.9126e+04
4859.3602 1.1131e+15 4.8725e+04
4859.3760 1.1131e+15 4.8330e+04
4859.3919 1.1131e+15 4.7942e+04
4859.4077 1.1131e+15 4.7559e+04
4859.4235 1.1131e+15 4.7182e+04
4859.4394 1.1131e+15 4.6811e+04
4859.4552 1.1131e+15 4.6446e+04
4859.4710 1.1131e+15 4.6087e+04
4859.4869 1.1131e+15 4.5733e+04
4859.5027 1.1131e+15 4.5385e+04
4859.5185 1.1131e+15 4.5042e+04
4859.5344 1.1131e+15 4.4705e+04
4859.5502 1.1131e+15 4.4373e+04
4859.5660 1.1131e+15 4.4046e+04
4859.5819 1.1131e+15 4.3724e+04
4859.5977 1.1131e+15 4.3407e+04
4859.6135 1.1131e+15 4.3096e+04
4859.6294 1.1131e+15 4.2789e+04
4859.6452 1.1131e+15 4.2487e+04
4859.6611 1.1131e+15 4.2190e+04
4859.6769 1.1131e+15 4.1898e+04
4859.6927 1.1130e+15 4.1610e+04
4859.7086 1.1130e+15 4.1327e+04
4859.7244 1.1130e+15 4.1049e+04
4859.7402 1.1130e+15 4.0775e+04
4859.7561 1.1130e+15 4.0505e+04
4859.7719 1.1130e+15 4.0240e+04
4859.7877 1.1130e+15 3.9979e+04
4859.8036 1.1130e+15 3.9722e+04
4859.8194 1.1130e+15 3.9470e+04
4859.8352 1.1130e+15 3.9221e+04
4859.8511 1.1130e+15 3.8977e+04
4859.8669 1.1130e+15 3.8737e+04
4859.8827 1.1130e+15 3.8500e+04
4859.8986 1.1130e+15 3.8268e+04
4859.9144 1.1130e+15 3.8039e+04
4859.9303 1.1130e+15 3.7815e+04
4859.9461 1.1130e+15 3.7594e+04
4859.9619 1.1130e+15 3.7377e+04
4859.9778 1.1130e+15 3.7163e+04
4859.9936 1.1130e+15 3.6953e+04
4860.0094 1.1130e+15 3.6747e+04
4860.0253 1.1130e+15 3.6544e+04
4860.0411 1.1130e+15 3.6345e+04
4860.0569 1.1129e+15 3.6150e+04
4860.0728 1.1129e+15 3.5957e+04
4860.0886 1.1129e+15 3.5768e+04
4860.1044 1.1129e+15 3.5583e+04
4860.1203 1.1129e+15 3.5400e+04
4860.1361 1.1129e+15 3.5221e+04
4860.1519 1.1129e+15 3.5046e+04
4860.1678 1.1129e+15 3.4873e+04
4860.1836 1.1129e+15 3.4704e+04
4860.1995 1.1129e+15 3.4537e+04
4860.2153 1.1129e+15 3.4374e+04
4860.2311 1.1129e+15 3.4214e+04
4860.2470 1.1129e+15 3.4057e+04
4860.2628 1.1129e+15 3.3903e+04
4860.2786 1.1129e+15 3.3752e+04
4860.2945 1.1129e+15 3.3603e+04
4860.3103 1.1129e+15 3.3458e+04
4860.3261 1.1129e+15 3.3316e+04
4860.3420 1.1129e+15 3.3176e+04
4860.3578 1.1129e+15 3.3039e+04
4860.3736 1.1129e+15 3.2905e+04
4860.3895 1.1129e+15 3.2774e+04
4860.4053 1.1129e+15 3.2645e+04
4860.4211 1.1128e+15 3.2519e+04
4860.4370 1.1128e+15 3.2396e+04
4860.4528 1.1128e+15 3.2276e+04
4860.4687 1.1128e+15 3.2158e+04
4860.4845 1.1128e+15 3.2043e+04
4860.5003 1.1128e+15 3.1930e+04
4860.5162 1.1128e+15 3.1820e+04
4860.5320 1.1128e+15 3.1712e+04
4860.5478 1.1128e+15 3.1607e+04
4860.5637 1.1128e+15 3.1504e+04
4860.5795 1.1128e+15 3.1404e+04
4860.5953 1.1128e+15 3.1307e+04
4860.6112 1.1128e+15 3.1211e+04
4860.6270 1.1128e+15 3.1119e+04
4860.6428 1.1128e+15 3.1028e+04
4860.6587 1.1128e+15 3.0940e+04
4860.6745 1.1128e+15 3.0855e+04
4860.6903 1.1128e+15 3.0771e+04
4860.7062 1.1128e+15 3.0690e+04
4860.7220 1.1128e+15 3.0612e+04
4860.7378 1.1128e+15 3.0535e+04
4860.7537 1.1128e+15 3.0461e+04
4860.7695 1.1127e+15 3.0389e+04
4860.7854 1.1127e+15 3.0320e+04
4860.8012 1.1127e+15 3.0253e+04
4860.8170 1.1127e+15 3.0188e+04
4860.8329 1.1127e+15 3.0125e+04
4860.8487 1.1127e+15 3.0064e+04
4860.8645 1.1127e+15 3.0006e+04
4860.8804 1.1127e+15 2.9949e+04
4860.8962 1.1127e+15 2.9895e+04
4860.9120 1.1127e+15 2.9843e+04
4860.9279 1.1127e+15 2.9793e+04
4860.9437 1.1127e+15 2.9746e+04
4860.9595 1.1127e+15 2.9700e+04
4860.9754 1.1127e+15 2.9657e+04
4860.9912 1.1127e+15 2.9616e+04
4861.0070 1.1127e+15 2.9576e+04
4861.0229 1.1127e+15 2.9539e+04
4861.0387 1.1127e+15 2.9504e+04
4861.0546 1.1127e+15 2.9472e+04
4861.0704 1.1127e+15 2.9441e+04
4861.0862 1.1127e+15 2.9412e+04
4861.1021 1.1127e+15 2.9385e+04
4861.1179 1.1127e+15 2.9361e+04
4861.1337 1.1126e+15 2.9338e+04
4861.1496 1.1126e+15 2.9318e+04
4861.1654 1.1126e+15 2.9299e+04
4861.1812 1.1126e+15 2.9283e+04
4861.1971 1.1126e+15 2.9268e+04
4861.2129 1.1126e+15 2.9256e+04
4861.2287 1.1126e+15 2.9246e+04
4861.2446 1.1126e+15 2.9238e+04
4861.2604 1.1126e+15 2.9231e+04
4861.2762 1.1126e+15 2.9227e+04
4861.2921 1.1126e+15 2.9225e+04
4861.3079 1.1126e+15 2.9225e+04
4861.3238 1.1126e+15 2.9227e+04
4861.3396 1.1126e+15 2.9231e+04
4861.3554 1.1126e+15 2.9237e+04
4861.3713 1.1126e+15 2.9245e+04
4861.3871 1.1126e+15 2.9255e+04
4861.4029 1.1126e+15 2.9267e+04
4861.4188 1.1126e+15 2.9281e+04
4861.4346 1.1126e+15 2.9297e+04
4861.4504 1.1126e+15 2.9315e+04
4861.4663 1.1126e+15 2.9336e+04
4861.4821 1.1126e+15 2.9358e+04
4861.4979 1.1125e+15 2.9382e+04
4861.5138 1.1125e+15 2.9409e+04
4861.5296 1.1125e+15 2.9437e+04
4861.5454 1.1125e+15 2.9468e+04
4861.5613 1.1125e+15 2.9501e+04
4861.5771 1.1125e+15 2.9535e+04
4861.5930 1.1125e+15 2.9572e+04
4861.6088 1.1125e+15 2.9611e+04
4861.6246 1.1125e+15 2.9652e+04
4861.6405 1.1125e+15 2.9695e+04
4861.6563 1.1125e+15 2.9741e+04
4861.6721 1.1125e+15 2.9788e+04
4861.6880 1.1125e+15 2.9838e+04
4861.7038 1.1125e+15 2.9889e+04
4861.7196 1.1125e+15 2.9943e+04
4861.7355 1.1125e+15 2.9999e+04
4861.7513 1.1125e+15 3.0057e+04
4861.7671 1.1125e+15 3.0118e+04
4861.7830 1.1125e+15 3.0180e+04
4861.7988 1.1125e+15 3.0245e+04
4861.8146 1.1125e+15 3.0312e+04
4861.8305 1.1125e+15 3.0381e+04
4861.8463 1.1125e+15 3.0453e+04
4861.8622 1.1124e+15 3.0527e+04
4861.8780 1.1124e+15 3.0603e+04
4861.8938 1.1124e+15 3.0681e+04
4861.9097 1.1124e+15 3.0762e+04
4861.9255 1.1124e+15 3.0845e+04
4861.9413 1.1124e+15 3.0930e+04
4861.9572 1.1124e+15 3.1018e+04
4861.9730 1.1124e+15 3.1108e+04
4861.9888 1.1124e+15 3.1201e+04
4862.0047 1.1124e+15 3.1296e+04
4862.0205 1.1124e+15 3.1393e+04
4862.0363 1.1124e+15 3.1493e+04
4862.0522 1.1124e+15 3.1595e+04
4862.0680 1.1124e+15 3.1700e+04
4862.0838 1.1124e+15 3.1807e+04
4862.0997 1.1124e+15 3.1917e+04
4862.1155 1.1124e+15 3.2030e+04
4862.1313 1.1124e+15 3.2145e+04
4862.1472 1.1124e+15 3.2262e+04
4862.1630 1.1124e+15 3.2382e+04
4862.1789 1.1124e+15 3.2505e+04
4862.1947 1.1124e+15 3.2631e+04
4862.2105 1.1124e+15 3.2759e+04
4862.2264 1.1123e+15 3.2890e+04
4862.2422 1.1123e+15 3.3024e+04
4862.2580 1.1123e+15 3.3160e+04
4862.2739 1.1123e+15 3.3300e+04
4862.2897 1.1123e+15 3.3442e+04
4862.3055 1.1123e+15 3.3587e+04
4862.3214 1.1123e+15 3.3735e+04
4862.3372 1.1123e+15 3.3885e+04
4862.3530 1.1123e+15 3.4039e+04
4862.3689 1.1123e+15 3.4196e+04
4862.3847 1.1123e+15 3.4356e+04
4862.4005 1.1123e+15 3.4519e+04
4862.4164 1.1123e+15 3.4684e+04
4862.4322 1.1123e+15 3.4854e+04
4862.4481 1.1123e+15 3.5026e+04
4862.4639 1.1123e+15 3.5201e+04
4862.4797 1.1123e+15 3.5380e+04
4862.4956 1.1123e+15 3.5562e+04
4862.5114 1.1123e+15 3.5747e+04
4862.5272 1.1123e+15 3.5935e+04
4862.5431 1.1123e+15 3.6127e+04
4862.5589 1.1123e+15 3.6323e+04
4862.5747 1.1123e+15 3.6521e+04
4862.5906 1.1122e+15 3.6724e+04
4862.6064 1.1122e+15 3.6929e+04
4862.6222 1.1122e+15 3.7139e+04
4862.6381 1.1122e+15 3.7352e+04
4862.6539 1.1122e+15 3.7569e+04
4862.6697 1.1122e+15 3.7789e+04
4862.6856 1.1122e+15 3.8013e+04
4862.7014 1.1122e+15 3.8241e+04
4862.7173 1.1122e+15 3.8473e+04
4862.7331 1.1122e+15 3.8709e+04
4862.7489 1.1122e+15 3.8949e+04
4862.7648 1.1122e+15 3.9193e+04
4862.7806 1.1122e+15 3.9441e+04
4862.7964 1.1122e+15 3.9693e+04
4862.8123 1.1122e+15 3.9949e+04
4862.8281 1.1122e+15 4.0209e+04
4862.8439 1.1122e+15 4.0474e+04
4862.8598 1.1122e+15 4.0743e+04
4862.8756 1.1122e+15 4.1017e+04
4862.8914 1.1122e+15 4.1294e+04
4862.9073 1.1122e+15 4.1577e+04
4862.9231 1.1122e+15 4.1864e+04
4862.9389 1.1122e+15 4.2156e+04
4862.9548 1.1121e+15 4.2452e+04
4862.9706 1.1121e+15 4.2754e+04
4862.9865 1.1121e+15 4.3060e+04
4863.0023 1.1121e+15 4.3371e+04
4863.0181 1.1121e+15 4.3687e+04
4863.0340 1.1121e+15 4.4008e+04
4863.0498 1.1121e+15 4.4334e+04
4863.0656 1.1121e+15 4.4666e+04
4863.0815 1.1121e+15 4.5002e+04
4863.0973 1.1121e+15 4.5345e+04
4863.1131 1.1121e+15 4.5692e+04
4863.1290 1.1121e+15 4.6045e+04
4863.1448 1.1121e+15 4.6404e+04
4863.1606 1.1121e+15 4.6768e+04
4863.1765 1.1121e+15 4.7138e+04
4863.1923 1.1121e+15 4.7514e+04
4863.2081 1.1121e+15 4.7896e+04
4863.2240 1.1121e+15 4.8284e+04
4863.2398 1.1121e+15 4.8678e+04
4863.2556 1.1121e+15 4.9079e+04
4863.2715 1.1121e+15 4.9485e+04
4863.2873 1.1121e+15 4.9898e+04
4863.3032 1.1120e+15 5.0318e+04
4863.3190 1.1120e+15 5.0744e+04
4863.3348 1.1120e+15 5.1177e+04
4863.3507 1.1120e+15 5.1616e+04
4863.3665 1.1120e+15 5.2063e+04
4863.3823 1.1120e+15 5.2516e+04
4863.3982 1.1120e+15 5.2977e+04
4863.4140 1.1120e+15 5.3445e+04
4863.4298 1.1120e+15 5.3920e+04
4863.4457 1.1120e+15 5.4403e+04
4863.4615 1.1120e+15 5.4893e+04
4863.4773 1.1120e+15 5.5391e+04
4863.4932 1.1120e+15 5.5897e+04
4863.5090 1.1120e+15 5.6410e+04
4863.5248 1.1120e+15 5.6932e+04
4863.5407 1.1120e+15 5.7462e+04
4863.5565 1.1120e+15 5.8000e+04
4863.5724 1.1120e+15 5.8547e+04
4863.5882 1.1120e+15 5.9102e+04
4863.6040 1.1120e+15 5.9667e+04
4863.6199 1.1120e+15 6.0239e+04
4863.6357 1.1120e+15 6.0821e+04
4863.6515 1.1120e+15 6.1412e+04
4863.6674 1.1119e+15 6.2013e+04
4863.6832 1.1119e+15 6.2623e+04
4863.6990 1.1119e+15 6.3242e+04
4863.7149 1.1119e+15 6.3871e+04
4863.7307 1.1119e+15 6.4510e+04
4863.7465 1.1119e+15 6.5160e+04
4863.7624 1.1119e+15 6.5819e+04
4863.7782 1.1119e+15 6.6489e+04
4863.7940 1.1119e+15 6.7169e+04
4863.8099 1.1119e+15 6.7861e+04
4863.8257 1.1119e+15 6.8563e+04
4863.8416 1.1119e+15 6.9276e+04
4863.8574 1.1119e+15 7.0001e+04
4863.8732 1.1119e+15 7.0737e+04
4863.8891 1.1119e+15 7.1484e+04
4863.9049 1.1119e+15 7.2244e+04
4863.9207 1.1119e+15 7.3016e+04
4863.9366 1.1119e+15 7.3800e+04
4863.9524 1.1119e+15 7.4596e+04
4863.9682 1.1119e+15 7.5406e+04
4863.9841 1.1119e+15 7.6228e+04
4863.9999 1.1119e+15 7.7063e+04
4864.0157 1.1119e+15 7.7911e+04
4864.0316 1.1118e+15 7.8774e+04
4864.0474 1.1118e+15 7.9650e+04
4864.0632 1.1118e+15 8.0540e+04
4864.0791 1.1118e+15 8.1444e+04
4864.0949 1.1118e+15 8.2363e+04
4864.1108 1.1118e+15 8.3296e+04
4864.1266 1.1118e+15 8.4245e+04
4864.1424 1.1118e+15 8.5209e+04
4864.1583 1.1118e+15 8.6188e+04
4864.1741 1.1118e+15 8.7183e+04
4864.1899 1.1118e+15 8.8195e+04
4864.2058 1.1118e+15 8.9222e+04
4864.2216 1.1118e+15 9.0267e+04
4864.2374 1.1118e+15 9.1328e+04
4864.2533 1.1118e+15 9.2406e+04
4864.2691 1.1118e+15 9.3502e+04
4864.2849 1.1118e+15 9.4616e+04
4864.3008 1.1118e+15 9.5748e+04
4864.3166 1.1118e+15 9.6898e+04
4864.3324 1.1118e+15 9.8068e+04
4864.3483 1.1118e+15 9.9256e+04
4864.3641 1.1118e+15 1.0046e+05
4864.3799 1.1118e+15 1.0169e+05
4864.3958 1.1117e+15 1.0294e+05
4864.4116 1.1117e+15 1.0421e+05
4864.4275 1.1117e+15 1.0550e+05
4864.4433 1.1117e+15 1.0681e+05
4864.4591 1.1117e+15 1.0814e+05
4864.4750 1.1117e+15 1.0949e+05
4864.4908 1.1117e+15 1.1087e+05
4864.5066 1.1117e+15 1.1227e+05
4864.5225 1.1117e+15 1.1369e+05
4864.5383 1.1117e+15 1.1513e+05
4864.5541 1.1117e+15 1.1660e+05
4864.5700 1.1117e+15 1.1810e+05
4864.5858 1.1117e+15 1.1961e+05
4864.6016 1.1117e+15 1.2116e+05
4864.6175 1.1117e+15 1.2273e+05
4864.6333 1.1117e+15 1.2432e+05
4864.6491 1.1117e+15 1.2595e+05
4864.6650 1.1117e+15 1.2760e+05
4864.6808 1.1117e+15 1.2927e+05
4864.6967 1.1117e+15 1.3098e+05
4864.7125 1.1117e+15 1.3271e+05
4864.7283 1.1117e+15 1.3447e+05
4864.7442 1.1117e+15 1.3627e+05
4864.7600 1.1116e+15 1.3809e+05
4864.7758 1.1116e+15 1.3994e+05
4864.7917 1.1116e+15 1.4183e+05
4864.8075 1.1116e+15 1.4375e+05
4864.8233 1.1116e+15 1.4569e+05
4864.8392 1.1116e+15 1.4768e+05
4864.8550 1.1116e+15 1.4969e+05
4864.8708 1.1116e+15 1.5174e+05
4864.8867 1.1116e+15 1.5383e+05
4864.9025 1.1116e+15 1.5595e+05
4864.9183 1.1116e+15 1.5810e+05
4864.9342 1.1116e+15 1.6030e+05
4864.9500 1.1116e+15 1.6253e+05
4864.9659 1.1116e+15 1.6480e+05
4864.9817 1.1116e+15 1.6711e+05
4864.9975 1.1116e+15 1.6945e+05
4865.0134 1.1116e+15 1.7184e+05
4865.0292 1.1116e+15 1.7427e+05
4865.0450 1.1116e+15 1.7674e+05
4865.0609 1.1116e+15 1.7925e+05
4865.0767 1.1116e+15 1.8181e+05
4865.0925 1.1116e+15 1.8441e+05
4865.1084 1.1116e+15 1.8706e+05
4865.1242 1.1115e+15 1.8975e+05
4865.1400 1.1115e+15 1.9248e+05
4865.1559 1.1115e+15 1.9527e+05
4865.1717 1.1115e+15 1.9810e+05
4865.1875 1.1115e+15 2.0099e+05
4865.2034 1.1115e+15 2.0392e+05
4865.2192 1.1115e+15 2.0690e+05
4865.2351 1.1115e+15 2.0994e+05
4865.2509 1.1115e+15 2.1303e+05
4865.2667 1.1115e+15 2.1617e+05
4865.2826 1.1115e+15 2.1937e+05
4865.2984 1.1115e+15 2.2263e+05
4865.3142 1.1115e+15 2.2594e+05
4865.3301 1.1115e+15 2.2931e+05
4865.3459 1.1115e+15 2.3274e+05
4865.3617 1.1115e+15 2.3622e+05
4865.3776 1.1115e+15 2.3978e+05
4865.3934 1.1115e+15 2.4339e+05
4865.4092 1.1115e+15 2.4707e+05
4865.4251 1.1115e+15 2.5081e+05
4865.4409 1.1115e+15 2.5462e+05
4865.4567 1.1115e+15 2.5849e+05
4865.4726 1.1115e+15 2.6244e+05
4865.4884 1.1114e+15 2.6645e+05
4865.5042 1.1114e+15 2.7054e+05
4865.5201 1.1114e+15 2.7469e+05
4865.5359 1.1114e+15 2.7893e+05
4865.5518 1.1114e+15 2.8323e+05
4865.5676 1.1114e+15 2.8762e+05
4865.5834 1.1114e+15 2.9208e+05
4865.5993 1.1114e+15 2.9662e+05
4865.6151 1.1114e+15 3.0125e+05
4865.6309 1.1114e+15 3.0595e+05
4865.6468 1.1114e+15 3.1074e+05
4865.6626 1.1114e+15 3.1562e+05
4865.6784 1.1114e+15 3.2059e+05
4865.6943 1.1114e+15 3.2564e+05
4865.7101 1.1114e+15 3.3078e+05
4865.7259 1.1114e+15 3.3602e+05
4865.7418 1.1114e+15 3.4135e+05
4865.7576 1.1114e+15 3.4678e+05
4865.7734 1.1114e+15 3.5231e+05
4865.7893 1.1114e+15 3.5793e+05
4865.8051 1.1114e+15 3.6366e+05
4865.8210 1.1114e+15 3.6949e+05
4865.8368 1.1113e+15 3.7543e+05
4865.8526 1.1113e+15 3.8148e+05
4865.8685 1.1113e+15 3.8763e+05
4865.8843 1.1113e+15 3.9390e+05
4865.9001 1.1113e+15 4.0028e+05
4865.9160 1.1113e+15 4.0678e+05
4865.9318 1.1113e+15 4.1339e+05
4865.9476 1.1113e+15 4.2013e+05
4865.9635 1.1113e+15 4.2699e+05
4865.9793 1.1113e+15 4.3397e+05
4865.9951 1.1113e+15 4.4108e+05
4866.0110 1.1113e+15 4.4833e+05
4866.0268 1.1113e+15 4.5570e+05
4866.0426 1.1113e+15 4.6321e+05
4866.0585 1.1113e+15 4.7086e+05
4866.0743 1.1113e+15 4.7865e+05
4866.0902 1.1113e+15 4.8658e+05
4866.1060 1.1113e+15 4.9466e+05
4866.1218 1.1113e+15 5.0288e+05
4866.1377 1.1113e+15 5.1126e+05
4866.1535 1.1113e+15 5.1979e+05
4866.1693 1.1113e+15 5.2848e+05
4866.1852 1.1113e+15 5.3734e+05
4866.2010 1.1112e+15 5.4635e+05
4866.2168 1.1112e+15 5.5553e+05
4866.2327 1.1112e+15 5.6488e+05
4866.2485 1.1112e+15 5.7440e+05
4866.2643 1.1112e+15 5.8411e+05
4866.2802 1.1112e+15 5.9399e+05
4866.2960 1.1112e+15 6.0405e+05
4866.3118 1.1112e+15 6.1430e+05
4866.3277 1.1112e+15 6.2474e+05
4866.3435 1.1112e+15 6.3538e+05
4866.3594 1.1112e+15 6.4621e+05
4866.3752 1.1112e+15 6.5725e+05
4866.3910 1.1112e+15 6.6849e+05
4866.4069 1.1112e+15 6.7994e+05
4866.4227 1.1112e+15 6.9161e+05
4866.4385 1.1112e+15 7.0349e+05
4866.4544 1.1112e+15 7.1559e+05
4866.4702 1.1112e+15 7.2792e+05
4866.4860 1.1112e+15 7.4049e+05
4866.5019 1.1112e+15 7.5328e+05
4866.5177 1.1112e+15 7.6632e+05
4866.5335 1.1112e+15 7.7960e+05
4866.5494 1.1112e+15 7.9313e+05
4866.5652 1.1111e+15 8.0692e+05
4866.5810 1.1111e+15 8.2096e+05
4866.5969 1.1111e+15 8.3527e+05
4866.6127 1.1111e+15 8.4985e+05
4866.6285 1.1111e+15 8.6470e+05
4866.6444 1.1111e+15 8.7983e+05
4866.6602 1.1111e+15 8.9525e+05
4866.6761 1.1111e+15 9.1095e+05
4866.6919 1.1111e+15 9.2696e+05
4866.7077 1.1111e+15 9.4326e+05
4866.7236 1.1111e+15 9.5987e+05
4866.7394 1.1111e+15 9.7680e+05
4866.7552 1.1111e+15 9.9405e+05
4866.7711 1.1111e+15 1.0116e+06
4866.7869 1.1111e+15 1.0295e+06
4866.8027 1.1111e+15 1.0478e+06
4866.8186 1.1111e+15 1.0664e+06
4866.8344 1.1111e+15 1.0853e+06
4866.8502 1.1111e+15 1.1046e+06
4866.8661 1.1111e+15 1.1243e+06
4866.8819 1.1111e+15 1.1443e+06
4866.8977 1.1111e+15 1.1647e+06
4866.9136 1.1111e+15 1.1855e+06
4866.9294 1.1110e+15 1.2067e+06
4866.9453 1.1110e+15 1.2283e+06
4866.9611 1.1110e+15 1.2504e+06
4866.9769 1.1110e+15 1.2728e+06
4866.9928 1.1110e+15 1.2957e+06
4867.0086 1.1110e+15 1.3190e+06
4867.0244 1.1110e+15 1.3427e+06
4867.0403 1.1110e+15 1.3669e+06
4867.0561 1.1110e+15 1.3916e+06
4867.0719 1.1110e+15 1.4167e+06
4867.0878 1.1110e+15 1.4423e+06
4867.1036 1.1110e+15 1.4684e+06
4867.1194 1.1110e+15 1.4950e+06
4867.1353 1.1110e+15 1.5221e+06
4867.1511 1.1110e+15 1.5497e+06
4867.1669 1.1110e+15 1.5779e+06
4867.1828 1.1110e+15 1.6065e+06
4867.1986 1.1110e+15 1.6358e+06
4867.2145 1.1110e+15 1.6656e+06
4867.2303 1.1110e+15 1.6959e+06
4867.2461 1.1110e+15 1.7269e+06
4867.2620 1.1110e+15 1.7584e+06
4867.2778 1.1110e+15 1.7906e+06
4867.2936 1.1109e+15 1.8233e+06
4867.3095 1.1109e+15 1.8567e+06
4867.3253 1.1109e+15 1.8907e+06
4867.3411 1.1109e+15 1.9254e+06
4867.3570 1.1109e+15 1.9607e+06
4867.3728 1.1109e+15 1.9968e+06
4867.3886 1.1109e+15 2.0335e+06
4867.4045 1.1109e+15 2.0709e+06
4867.4203 1.1109e+15 2.1090e+06
4867.4361 1.1109e+15 2.1479e+06
4867.4520 1.1109e+15 2.1875e+06
4867.4678 1.1109e+15 2.2279e+06
4867.4837 1.1109e+15 2.2691e+06
4867.4995 1.1109e+15 2.3110e+06
4867.5153 1.1109e+15 2.3537e+06
4867.5312 1.1109e+15 2.3973e+06
4867.5470 1.1109e+15 2.4417e+06
4867.5628 1.1109e+15 2.4870e+06
4867.5787 1.1109e+15 2.5331e+06
4867.5945 1.1109e+15 2.5802e+06
4867.6103 1.1109e+15 2.6281e+06
4867.6262 1.1109e+15 2.6769e+06
4867.6420 1.1109e+15 2.7267e+06
4867.6578 1.1108e+15 2.7775e+06
4867.6737 1.1108e+15 2.8292e+06
4867.6895 1.1108e+15 2.8819e+06
4867.7053 1.1108e+15 2.9357e+06
4867.7212 1.1108e+15 2.9904e+06
4867.7370 1.1108e+15 3.0463e+06
4867.7528 1.1108e+15 3.1032e+06
4867.7687 1.1108e+15 3.1612e+06
4867.7845 1.1108e+15 3.2203e+06
4867.8004 1.1108e+15 3.2806e+06
4867.8162 1.1108e+15 3.3420e+06
4867.8320 1.1108e+15 3.4046e+06
4867.8479 1.1108e+15 3.4684e+06
4867.8637 1.1108e+15 3.5334e+06
4867.8795 1.1108e+15 3.5997e+06
4867.8954 1.1108e+15 3.6673e+06
4867.9112 1.1108e+15 3.7362e+06
4867.9270 1.1108e+15 3.8064e+06
4867.9429 1.1108e+15 3.8780e+06
4867.9587 1.1108e+15 3.9509e+06
4867.9745 1.1108e+15 4.0252e+06
4867.9904 1.1108e+15 4.1010e+06
4868.0062 1.1108e+15 4.1783e+06
4868.0220 1.1107e+15 4.2570e+06
4868.0379 1.1107e+15 4.3373e+06
4868.0537 1.1107e+15 4.4191e+06
4868.0696 1.1107e+15 4.5024e+06
4868.0854 1.1107e+15 4.5874e+06
4868.1012 1.1107e+15 4.6740e+06
4868.1171 1.1107e+15 4.7623e+06
4868.1329 1.1107e+15 4.8523e+06
4868.1487 1.1107e+15 4.9440e+06
4868.1646 1.1107e+15 5.0375e+06
4868.1804 1.1107e+15 5.1328e+06
4868.1962 1.1107e+15 5.2300e+06
4868.2121 1.1107e+15 5.3290e+06
4868.2279 1.1107e+15 5.4299e+06
4868.2437 1.1107e+15 5.5328e+06
4868.2596 1.1107e+15 5.6376e+06
4868.2754 1.1107e+15 5.7445e+06
4868.2912 1.1107e+15 5.8534e+06
4868.3071 1.1107e+15 5.9644e+06
4868.3229 1.1107e+15 6.0776e+06
4868.3388 1.1107e+15 6.1929e+06
4868.3546 1.1107e+15 6.3105e+06
4868.3704 1.1106e+15 6.4303e+06
4868.3863 1.1106e+15 6.5524e+06
4868.4021 1.1106e+15 6.6769e+06
4868.4179 1.1106e+15 6.8038e+06
4868.4338 1.1106e+15 6.9331e+06
4868.4496 1.1106e+15 7.0649e+06
4868.4654 1.1106e+15 7.1992e+06
4868.4813 1.1106e+15 7.3362e+06
4868.4971 1.1106e+15 7.4757e+06
4868.5129 1.1106e+15 7.6180e+06
4868.5288 1.1106e+15 7.7629e+06
4868.5446 1.1106e+15 7.9107e+06
4868.5604 1.1106e+15 8.0613e+06
4868.5763 1.1106e+15 8.2148e+06
4868.5921 1.1106e+15 8.3712e+06
4868.6080 1.1106e+15 8.5307e+06
4868.6238 1.1106e+15 8.6932e+06
4868.6396 1.1106e+15 8.8588e+06
4868.6555 1.1106e+15 9.0276e+06
4868.6713 1.1106e+15 9.1997e+06
4868.6871 1.1106e+15 9.3750e+06
4868.7030 1.1106e+15 9.5537e+06
4868.7188 1.1106e+15 9.7358e+06
4868.7346 1.1105e+15 9.9214e+06
4868.7505 1.1105e+15 1.0111e+07
4868.7663 1.1105e+15 1.0303e+07
4868.7821 1.1105e+15 1.0500e+07
4868.7980 1.1105e+15 1.0700e+07
4868.8138 1.1105e+15 1.0904e+07
4868.8296 1.1105e+15 1.1112e+07
4868.8455 1.1105e+15 1.1324e+07
4868.8613 1.1105e+15 1.1540e+07
4868.8771 1.1105e+15 1.1760e+07
4868.8930 1.1105e+15 1.1985e+07
4868.9088 1.1105e+15 1.2213e+07
4868.9247 1.1105e+15 1.2446e+07
4868.9405 1.1105e+15 1.2684e+07
4868.9563 1.1105e+15 1.2926e+07
4868.9722 1.1105e+15 1.3172e+07
4868.9880 1.1105e+15 1.3424e+07
4869.0038 1.1105e+15 1.3680e+07
4869.0197 1.1105e+15 1.3941e+07
4869.0355 1.1105e+15 1.4207e+07
4869.0513 1.1105e+15 1.4478e+07
4869.0672 1.1105e+15 1.4754e+07
4869.0830 1.1105e+15 1.5035e+07
4869.0988 1.1104e+15 1.5322e+07
4869.1147 1.1104e+15 1.5614e+07
4869.1305 1.1104e+15 1.5912e+07
4869.1463 1.1104e+15 1.6216e+07
4869.1622 1.1104e+15 1.6525e+07
4869.1780 1.1104e+15 1.6840e+07
4869.1939 1.1104e+15 1.7161e+07
4869.2097 1.1104e+15 1.7488e+07
4869.2255 1.1104e+15 1.7822e+07
4869.2414 1.1104e+15 1.8161e+07
4869.2572 1.1104e+15 1.8507e+07
4869.2730 1.1104e+15 1.8860e+07
4869.2889 1.1104e+15 1.9219e+07
4869.3047 1.1104e+15 1.9586e+07
4869.3205 1.1104e+15 1.9959e+07
4869.3364 1.1104e+15 2.0339e+07
4869.3522 1.1104e+15 2.0726e+07
4869.3680 1.1104e+15 2.1121e+07
4869.3839 1.1104e+15 2.1523e+07
4869.3997 1.1104e+15 2.1932e+07
4869.4155 1.1104e+15 2.2350e+07
4869.4314 1.1104e+15 2.2775e+07
4869.4472 1.1104e+15 2.3208e+07
4869.4631 1.1103e+15 2.3650e+07
4869.4789 1.1103e+15 2.4099e+07
4869.4947 1.1103e+15 2.4557e+07
4869.5106 1.1103e+15 2.5024e+07
4869.5264 1.1103e+15 2.5500e+07
4869.5422 1.1103e+15 2.5984e+07
4869.5581 1.1103e+15 2.6478e+07
4869.5739 1.1103e+15 2.6981e+07
4869.5897 1.1103e+15 2.7493e+07
4869.6056 1.1103e+15 2.8015e+07
4869.6214 1.1103e+15 2.8547e+07
4869.6372 1.1103e+15 2.9088e+07
4869.6531 1.1103e+15 2.9640e+07
4869.6689 1.1103e+15 3.0202e+07
4869.6847 1.1103e+15 3.0775e+07
4869.7006 1.1103e+15 3.1358e+07
4869.7164 1.1103e+15 3.1952e+07
4869.7323 1.1103e+15 3.2557e+07
4869.7481 1.1103e+15 3.3174e+07
4869.7639 1.1103e+15 3.3802e+07
4869.7798 1.1103e+15 3.4441e+07
4869.7956 1.1103e+15 3.5093e+07
4869.8114 1.1103e+15 3.5757e+07
4869.8273 1.1102e+15 3.6433e+07
4869.8431 1.1102e+15 3.7122e+07
4869.8589 1.1102e+15 3.7823e+07
4869.8748 1.1102e+15 3.8537e+07
4869.8906 1.1102e+15 3.9265e+07
4869.9064 1.1102e+15 4.0006e+07
4869.9223 1.1102e+15 4.0761e+07
4869.9381 1.1102e+15 4.1530e+07
4869.9539 1.1102e+15 4.2313e+07
4869.9698 1.1102e+15 4.3111e+07
4869.9856 1.1102e+15 4.3923e+07
4870.0015 1.1102e+15 4.4751e+07
4870.0173 1.1102e+15 4.5593e+07
4870.0331 1.1102e+15 4.6451e+07
4870.0490 1.1102e+15 4.7325e+07
4870.0648 1.1102e+15 4.8215e+07
4870.0806 1.1102e+15 4.9122e+07
4870.0965 1.1102e+15 5.0045e+07
4870.1123 1.1102e+15 5.0985e+07
4870.1281 1.1102e+15 5.1942e+07
4870.1440 1.1102e+15 5.2917e+07
4870.1598 1.1102e+15 5.3910e+07
4870.1756 1.1102e+15 5.4921e+07
4870.1915 1.1101e+15 5.5951e+07
4870.2073 1.1101e+15 5.6999e+07
4870.2231 1.1101e+15 5.8067e+07
4870.2390 1.1101e+15 5.9154e+07
4870.2548 1.1101e+15 6.0261e+07
4870.2706 1.1101e+15 6.1388e+07
4870.2865 1.1101e+15 6.2535e+07
4870.3023 1.1101e+15 6.3704e+07
4870.3182 1.1101e+15 6.4894e+07
4870.3340 1.1101e+15 6.6105e+07
4870.3498 1.1101e+15 6.7339e+07
4870.3657 1.1101e+15 6.8595e+07
4870.3815 1.1101e+15 6.9874e+07
4870.3973 1.1101e+15 7.1176e+07
4870.4132 1.1101e+15 7.2501e+07
4870.4290 1.1101e+15 7.3851e+07
4870.4448 1.1101e+15 7.5225e+07
4870.4607 1.1101e+15 7.6624e+07
4870.4765 1.1101e+15 7.8048e+07
4870.4923 1.1101e+15 7.9498e+07
4870.5082 1.1101e+15 8.0974e+07
4870.5240 1.1101e+15 8.2477e+07
4870.5398 1.1100e+15 8.4006e+07
4870.5557 1.1100e+15 8.5564e+07
4870.5715 1.1100e+15 8.7149e+07
4870.5874 1.1100e+15 8.8763e+07
4870.6032 1.1100e+15 9.0406e+07
4870.6190 1.1100e+15 9.2078e+07
4870.6349 1.1100e+15 9.3780e+07
4870.6507 1.1100e+15 9.5513e+07
4870.6665 1.1100e+15 9.7277e+07
4870.6824 1.1100e+15 9.9072e+07
4870.6982 1.1100e+15 1.0090e+08
4870.7140 1.1100e+15 1.0276e+08
4870.7299 1.1100e+15 1.0465e+08
4870.7457 1.1100e+15 1.0658e+08
4870.7615 1.1100e+15 1.0854e+08
4870.7774 1.1100e+15 1.1054e+08
4870.7932 1.1100e+15 1.1257e+08
4870.8090 1.1100e+15 1.1464e+08
4870.8249 1.1100e+15 1.1674e+08
4870.8407 1.1100e+15 1.1888e+08
4870.8566 1.1100e+15 1.2106e+08
4870.8724 1.1100e+15 1.2328e+08
4870.8882 1.1100e+15 1.2554e+08
4870.9041 1.1099e+15 1.2784e+08
4870.9199 1.1099e+15 1.3018e+08
4870.9357 1.1099e+15 1.3256e+08
4870.9516 1.1099e+15 1.3498e+08
4870.9674 1.1099e+15 1.3744e+08
4870.9832 1.1099e+15 1.3995e+08
4870.9991 1.1099e+15 1.4250e+08
4871.0149 1.1099e+15 1.4510e+08
4871.0307 1.1099e+15 1.4774e+08
4871.0466 1.1099e+15 1.5043e+08
4871.0624 1.1099e+15 1.5316e+08
4871.0782 1.1099e+15 1.5595e+08
4871.0941 1.1099e+15 1.5878e+08
4871.1099 1.1099e+15 1.6166e+08
4871.1258 1.1099e+15 1.6459e+08
4871.1416 1.1099e+15 1.6758e+08
4871.1574 1.1099e+15 1.7061e+08
4871.1733 1.1099e+15 1.7370e+08
4871.1891 1.1099e+15 1.7684e+08
4871.2049 1.1099e+15 1.8004e+08
4871.2208 1.1099e+15 1.8329e+08
4871.2366 1.1099e+15 1.8660e+08
4871.2524 1.1099e+15 1.8996e+08
4871.2683 1.1098e+15 1.9339e+08
4871.2841 1.1098e+15 1.9687e+08
4871.2999 1.1098e+15 2.0041e+08
4871.3158 1.1098e+15 2.0402e+08
4871.3316 1.1098e+15 2.0768e+08
4871.3474 1.1098e+15 2.1141e+08
4871.3633 1.1098e+15 2.1521e+08
4871.3791 1.1098e+15 2.1907e+08
4871.3949 1.1098e+15 2.2299e+08
4871.4108 1.1098e+15 2.2698e+08
4871.4266 1.1098e+15 2.3105e+08
4871.4425 1.1098e+15 2.3518e+08
4871.4583 1.1098e+15 2.3938e+08
4871.4741 1.1098e+15 2.4365e+08
4871.4900 1.1098e+15 2.4800e+08
4871.5058 1.1098e+15 2.5242e+08
4871.5216 1.1098e+15 2.5692e+08
4871.5375 1.1098e+15 2.6149e+08
4871.5533 1.1098e+15 2.6614e+08
4871.5691 1.1098e+15 2.7087e+08
4871.5850 1.1098e+15 2.7568e+08
4871.6008 1.1098e+15 2.8057e+08
4871.6166 1.1098e+15 2.8554e+08
4871.6325 1.1097e+15 2.9060e+08
4871.6483 1.1097e+15 2.9574e+08
4871.6641 1.1097e+15 3.0098e+08
4871.6800 1.1097e+15 3.0629e+08
4871.6958 1.1097e+15 3.1170e+08
4871.7117 1.1097e+15 3.1720e+08
4871.7275 1.1097e+15 3.2279e+08
4871.7433 1.1097e+15 3.2848e+08
4871.7592 1.1097e+15 3.3426e+08
4871.7750 1.1097e+15 3.4014e+08
4871.7908 1.1097e+15 3.4612e+08
4871.8067 1.1097e+15 3.5220e+08
4871.8225 1.1097e+15 3.5837e+08
4871.8383 1.1097e+15 3.6466e+08
4871.8542 1.1097e+15 3.7104e+08
4871.8700 1.1097e+15 3.7754e+08
4871.8858 1.1097e+15 3.8414e+08
4871.9017 1.1097e+15 3.9085e+08
4871.9175 1.1097e+15 3.9767e+08
4871.9333 1.1097e+15 4.0461e+08
4871.9492 1.1097e+15 4.1166e+08
4871.9650 1.1097e+15 4.1883e+08
4871.9809 1.1097e+15 4.2611e+08
4871.9967 1.1096e+15 4.3352e+08
4872.0125 1.1096e+15 4.4105e+08
4872.0284 1.1096e+15 4.4870e+08
4872.0442 1.1096e+15 4.5648e+08
4872.0600 1.1096e+15 4.6439e+08
4872.0759 1.1096e+15 4.7242e+08
4872.0917 1.1096e+15 4.8059e+08
4872.1075 1.1096e+15 4.8889e+08
4872.1234 1.1096e+15 4.9733e+08
4872.1392 1.1096e+15 5.0591e+08
4872.1550 1.1096e+15 5.1463e+08
4872.1709 1.1096e+15 5.2348e+08
4872.1867 1.1096e+15 5.3249e+08
4872.2025 1.1096e+15 5.4164e+08
4872.2184 1.1096e+15 5.5094e+08
4872.2342 1.1096e+15 5.6039e+08
4872.2501 1.1096e+15 5.6999e+08
4872.2659 1.1096e+15 5.7975e+08
4872.2817 1.1096e+15 5.8967e+08
4872.2976 1.1096e+15 5.9975e+08
4872.3134 1.1096e+15 6.0999e+08
4872.3292 1.1096e+15 6.2039e+08
4872.3451 1.1096e+15 6.3097e+08
4872.3609 1.1095e+15 6.4171e+08
4872.3767 1.1095e+15 6.5263e+08
4872.3926 1.1095e+15 6.6372e+08
4872.4084 1.1095e+15 6.7499e+08
4872.4242 1.1095e+15 6.8644e+08
4872.4401 1.1095e+15 6.9807e+08
4872.4559 1.1095e+15 7.0989e+08
4872.4717 1.1095e+15 7.2190e+08
4872.4876 1.1095e+15 7.3410e+08
4872.5034 1.1095e+15 7.4650e+08
4872.5192 1.1095e+15 7.5909e+08
4872.5351 1.1095e+15 7.7188e+08
4872.5509 1.1095e+15 7.8488e+08
4872.5668 1.1095e+15 7.9808e+08
4872.5826 1.1095e+15 8.1149e+08
4872.5984 1.1095e+15 8.2512e+08
4872.6143 1.1095e+15 8.3896e+08
4872.6301 1.1095e+15 8.5301e+08
4872.6459 1.1095e+15 8.6729e+08
4872.6618 1.1095e+15 8.8180e+08
4872.6776 1.1095e+15 8.9653e+08
4872.6934 1.1095e+15 9.1149e+08
4872.7093 1.1095e+15 9.2669e+08
4872.7251 1.1094e+15 9.4213e+08
4872.7409 1.1094e+15 9.5780e+08
4872.7568 1.1094e+15 9.7373e+08
4872.7726 1.1094e+15 9.8990e+08
4872.7884 1.1094e+15 1.0063e+09
4872.8043 1.1094e+15 1.0230e+09
4872.8201 1.1094e+15 1.0399e+09
4872.8360 1.1094e+15 1.0571e+09
4872.8518 1.1094e+15 1.0746e+09
4872.8676 1.1094e+15 1.0924e+09
4872.8835 1.1094e+15 1.1104e+09
4872.8993 1.1094e+15 1.1287e+09
4872.9151 1.1094e+15 1.1472e+09
4872.9310 1.1094e+15 1.1661e+09
4872.9468 1.1094e+15 1.1853e+09
4872.9626 1.1094e+15 1.2047e+09
4872.9785 1.1094e+15 1.2245e+09
4872.9943 1.1094e+15 1.2445e+09
4873.0101 1.1094e+15 1.2649e+09
4873.0260 1.1094e+15 1.2855e+09
4873.0418 1.1094e+15 1.3065e+09
4873.0576 1.1094e+15 1.3278e+09
4873.0735 1.1093e+15 1.3495e+09
4873.0893 1.1093e+15 1.3714e+09
4873.1052 1.1093e+15 1.3937e+09
4873.1210 1.1093e+15 1.4164e+09
4873.1368 1.1093e+15 1.4394e+09
4873.1527 1.1093e+15 1.4627e+09
4873.1685 1.1093e+15 1.4864e+09
4873.1843 1.1093e+15 1.5104e+09
4873.2002 1.1093e+15 1.5348e+09
4873.2160 1.1093e+15 1.5596e+09
4873.2318 1.1093e+15 1.5847e+09
4873.2477 1.1093e+15 1.6102e+09
4873.2635 1.1093e+15 1.6361e+09
4873.2793 1.1093e+15 1.6624e+09
4873.2952 1.1093e+15 1.6891e+09
4873.3110 1.1093e+15 1.7162e+09
4873.3268 1.1093e+15 1.7437e+09
4873.3427 1.1093e+15 1.7716e+09
4873.3585 1.1093e+15 1.7999e+09
4873.3744 1.1093e+15 1.8287e+09
4873.3902 1.1093e+15 1.8578e+09
4873.4060 1.1093e+15 1.8875e+09
4873.4219 1.1093e+15 1.9175e+09
4873.4377 1.1092e+15 1.9480e+09
4873.4535 1.1092e+15 1.9789e+09
4873.4694 1.1092e+15 2.0103e+09
4873.4852 1.1092e+15 2.0422e+09
4873.5010 1.1092e+15 2.0745e+09
4873.5169 1.1092e+15 2.1073e+09
4873.5327 1.1092e+15 2.1406e+09
4873.5485 1.1092e+15 2.1744e+09
4873.5644 1.1092e+15 2.2086e+09
4873.5802 1.1092e+15 2.2434e+09
4873.5960 1.1092e+15 2.2787e+09
4873.6119 1.1092e+15 2.3145e+09
4873.6277 1.1092e+15 2.3508e+09
4873.6435 1.1092e+15 2.3877e+09
4873.6594 1.1092e+15 2.4250e+09
4873.6752 1.1092e+15 2.4630e+09
4873.6911 1.1092e+15 2.5015e+09
4873.7069 1.1092e+15 2.5405e+09
4873.7227 1.1092e+15 2.5801e+09
4873.7386 1.1092e+15 2.6203e+09
4873.7544 1.1092e+15 2.6610e+09
4873.7702 1.1092e+15 2.7024e+09
4873.7861 1.1092e+15 2.7443e+09
4873.8019 1.1091e+15 2.7868e+09
4873.8177 1.1091e+15 2.8300e+09
4873.8336 1.1091e+15 2.8738e+09
4873.8494 1.1091e+15 2.9181e+09
4873.8652 1.1091e+15 2.9632e+09
4873.8811 1.1091e+15 3.0088e+09
4873.8969 1.1091e+15 3.0552e+09
4873.9127 1.1091e+15 3.1022e+09
4873.9286 1.1091e+15 3.1498e+09
4873.9444 1.1091e+15 3.1981e+09
4873.9603 1.1091e+15 3.2471e+09
4873.9761 1.1091e+15 3.2969e+09
4873.9919 1.1091e+15 3.3473e+09
4874.0078 1.1091e+15 3.3984e+09
4874.0236 1.1091e+15 3.4502e+09
4874.0394 1.1091e+15 3.5028e+09
4874.0553 1.1091e+15 3.5561e+09
4874.0711 1.1091e+15 3.6102e+09
4874.0869 1.1091e+15 3.6650e+09
4874.1028 1.1091e+15 3.7206e+09
4874.1186 1.1091e+15 3.7770e+09
4874.1344 1.1091e+15 3.8341e+09
4874.1503 1.1091e+15 3.8921e+09
4874.1661 1.1090e+15 3.9508e+09
4874.1819 1.1090e+15 4.0104e+09
4874.1978 1.1090e+15 4.0708e+09
4874.2136 1.1090e+15 4.1321e+09
4874.2295 1.1090e+15 4.1941e+09
4874.2453 1.1090e+15 4.2571e+09
4874.2611 1.1090e+15 4.3209e+09
4874.2770 1.1090e+15 4.3856e+09
4874.2928 1.1090e+15 4.4512e+09
4874.3086 1.1090e+15 4.5177e+09
4874.3245 1.1090e+15 4.5851e+09
4874.3403 1.1090e+15 4.6535e+09
4874.3561 1.1090e+15 4.7227e+09
4874.3720 1.1090e+15 4.7929e+09
4874.3878 1.1090e+15 4.8641e+09
4874.4036 1.1090e+15 4.9363e+09
4874.4195 1.1090e+15 5.0094e+09
4874.4353 1.1090e+15 5.0835e+09
4874.4511 1.1090e+15 5.1587e+09
4874.4670 1.1090e+15 5.2348e+09
4874.4828 1.1090e+15 5.3120e+09
4874.4987 1.1090e+15 5.3902e+09
4874.5145 1.1090e+15 5.4695e+09
4874.5303 1.1089e+15 5.5499e+09
4874.5462 1.1089e+15 5.6313e+09
4874.5620 1.1089e+15 5.7139e+09
4874.5778 1.1089e+15 5.7975e+09
4874.5937 1.1089e+15 5.8823e+09
4874.6095 1.1089e+15 5.9682e+09
4874.6253 1.1089e+15 6.0552e+09
4874.6412 1.1089e+15 6.1435e+09
4874.6570 1.1089e+15 6.2329e+09
4874.6728 1.1089e+15 6.3234e+09
4874.6887 1.1089e+15 6.4152e+09
4874.7045 1.1089e+15 6.5082e+09
4874.7203 1.1089e+15 6.6025e+09
4874.7362 1.1089e+15 6.6980e+09
4874.7520 1.1089e+15 6.7947e+09
4874.7678 1.1089e+15 6.8928e+09
4874.7837 1.1089e+15 6.9921e+09
4874.7995 1.1089e+15 7.0927e+09
4874.8154 1.1089e+15 7.1947e+09
4874.8312 1.1089e+15 7.2980e+09
4874.8470 1.1089e+15 7.4026e+09
4874.8629 1.1089e+15 7.5086e+09
4874.8787 1.1088e+15 7.6160e+09
4874.8945 1.1088e+15 7.7248e+09
4874.9104 1.1088e+15 7.8351e+09
4874.9262 1.1088e+15 7.9467e+09
4874.9420 1.1088e+15 8.0598e+09
4874.9579 1.1088e+15 8.1744e+09
4874.9737 1.1088e+15 8.2905e+09
4874.9895 1.1088e+15 8.4080e+09
4875.0054 1.1088e+15 8.5271e+09
4875.0212 1.1088e+15 8.6478e+09
4875.0370 1.1088e+15 8.7699e+09
4875.0529 1.1088e+15 8.8937e+09
4875.0687 1.1088e+15 9.0190e+09
4875.0846 1.1088e+15 9.1460e+09
4875.1004 1.1088e+15 9.2746e+09
4875.1162 1.1088e+15 9.4048e+09
4875.1321 1.1088e+15 9.5367e+09
4875.1479 1.1088e+15 9.6702e+09
4875.1637 1.1088e+15 9.8055e+09
4875.1796 1.1088e+15 9.9425e+09
4875.1954 1.1088e+15 1.0081e+10
4875.2112 1.1088e+15 1.0222e+10
4875.2271 1.1088e+15 1.0364e+10
4875.2429 1.1087e+15 1.0508e+10
4875.2587 1.1087e+15 1.0654e+10
4875.2746 1.1087e+15 1.0802e+10
4875.2904 1.1087e+15 1.0951e+10
4875.3062 1.1087e+15 1.1103e+10
4875.3221 1.1087e+15 1.1256e+10
4875.3379 1.1087e+15 1.1411e+10
4875.3538 1.1087e+15 1.1569e+10
4875.3696 1.1087e+15 1.1728e+10
4875.3854 1.1087e+15 1.1889e+10
4875.4013 1.1087e+15 1.2052e+10
4875.4171 1.1087e+15 1.2217e+10
4875.4329 1.1087e+15 1.2385e+10
4875.4488 1.1087e+15 1.2554e+10
4875.4646 1.1087e+15 1.2725e+10
4875.4804 1.1087e+15 1.2899e+10
4875.4963 1.1087e+15 1.3075e+10
4875.5121 1.1087e+15 1.3252e+10
4875.5279 1.1087e+15 1.3433e+10
4875.5438 1.1087e+15 1.3615e+10
4875.5596 1.1087e+15 1.3799e+10
4875.5754 1.1087e+15 1.3986e+10
4875.5913 1.1087e+15 1.4175e+10
4875.6071 1.1086e+15 1.4366e+10
4875.6230 1.1086e+15 1.4560e+10
4875.6388 1.1086e+15 1.4756e+10
4875.6546 1.1086e+15 1.4955e+10
4875.6705 1.1086e+15 1.5156e+10
4875.6863 1.1086e+15 1.5359e+10
4875.7021 1.1086e+15 1.5565e+10
4875.7180 1.1086e+15 1.5773e+10
4875.7338 1.1086e+15 1.5984e+10
4875.7496 1.1086e+15 1.6197e+10
4875.7655 1.1086e+15 1.6413e+10
4875.7813 1.1086e+15 1.6631e+10
4875.7971 1.1086e+15 1.6852e+10
4875.8130 1.1086e+15 1.7076e+10
4875.8288 1.1086e+15 1.7302e+10
4875.8446 1.1086e+15 1.7531e+10
4875.8605 1.1086e+15 1.7763e+10
4875.8763 1.1086e+15 1.7998e+10
4875.8921 1.1086e+15 1.8235e+10
4875.9080 1.1086e+15 1.8475e+10
4875.9238 1.1086e+15 1.8718e+10
4875.9397 1.1086e+15 1.8964e+10
4875.9555 1.1086e+15 1.9213e+10
4875.9713 1.1085e+15 1.9465e+10
4875.9872 1.1085e+15 1.9720e+10
4876.0030 1.1085e+15 1.9977e+10
4876.0188 1.1085e+15 2.0238e+10
4876.0347 1.1085e+15 2.0502e+10
4876.0505 1.1085e+15 2.0769e+10
4876.0663 1.1085e+15 2.1039e+10
4876.0822 1.1085e+15 2.1312e+10
4876.0980 1.1085e+15 2.1588e+10
4876.1138 1.1085e+15 2.1868e+10
4876.1297 1.1085e+15 2.2151e+10
4876.1455 1.1085e+15 2.2437e+10
4876.1613 1.1085e+15 2.2726e+10
4876.1772 1.1085e+15 2.3019e+10
4876.1930 1.1085e+15 2.3315e+10
4876.2089 1.1085e+15 2.3615e+10
4876.2247 1.1085e+15 2.3918e+10
4876.2405 1.1085e+15 2.4224e+10
4876.2564 1.1085e+15 2.4534e+10
4876.2722 1.1085e+15 2.4848e+10
4876.2880 1.1085e+15 2.5165e+10
4876.3039 1.1085e+15 2.5486e+10
4876.3197 1.1085e+15 2.5810e+10
4876.3355 1.1084e+15 2.6138e+10
4876.3514 1.1084e+15 2.6470e+10
4876.3672 1.1084e+15 2.6806e+10
4876.3830 1.1084e+15 2.7145e+10
4876.3989 1.1084e+15 2.7488e+10
4876.4147 1.1084e+15 2.7836e+10
4876.4305 1.1084e+15 2.8187e+10
4876.4464 1.1084e+15 2.8542e+10
4876.4622 1.1084e+15 2.8901e+10
4876.4781 1.1084e+15 2.9264e+10
4876.4939 1.1084e+15 2.9631e+10
4876.5097 1.1084e+15 3.0002e+10
4876.5256 1.1084e+15 3.0377e+10
4876.5414 1.1084e+15 3.0757e+10
4876.5572 1.1084e+15 3.1141e+10
4876.5731 1.1084e+15 3.1529e+10
4876.5889 1.1084e+15 3.1921e+10
4876.6047 1.1084e+15 3.2318e+10
4876.6206 1.1084e+15 3.2719e+10
4876.6364 1.1084e+15 3.3125e+10
4876.6522 1.1084e+15 3.3535e+10
4876.6681 1.1084e+15 3.3949e+10
4876.6839 1.1084e+15 3.4368e+10
4876.6997 1.1083e+15 3.4792e+10
4876.7156 1.1083e+15 3.5220e+10
4876.7314 1.1083e+15 3.5653e+10
4876.7473 1.1083e+15 3.6091e+10
4876.7631 1.1083e+15 3.6534e+10
4876.7789 1.1083e+15 3.6981e+10
4876.7948 1.1083e+15 3.7434e+10
4876.8106 1.1083e+15 3.7891e+10
4876.8264 1.1083e+15 3.8353e+10
4876.8423 1.1083e+15 3.8820e+10
4876.8581 1.1083e+15 3.9292e+10
4876.8739 1.1083e+15 3.9769e+10
4876.8898 1.1083e+15 4.0252e+10
4876.9056 1.1083e+15 4.0740e+10
4876.9214 1.1083e+15 4.1232e+10
4876.9373 1.1083e+15 4.1731e+10
4876.9531 1.1083e+15 4.2234e+10
4876.9689 1.1083e+15 4.2743e+10
4876.9848 1.1083e+15 4.3257e+10
4877.0006 1.1083e+15 4.3777e+10
4877.0164 1.1083e+15 4.4303e+10
4877.0323 1.1083e+15 4.4833e+10
4877.0481 1.1082e+15 4.5370e+10
4877.0640 1.1082e+15 4.5912e+10
4877.0798 1.1082e+15 4.6460e+10
4877.0956 1.1082e+15 4.7014e+10
4877.1115 1.1082e+15 4.7574e+10
4877.1273 1.1082e+15 4.8139e+10
