# Wavelength(Å) I_cont(erg/s/cm2/Å/sr) I_abs(erg/s/cm2/Å/sr)
4327.2810 6.8516e+14 6.0590e+14
4327.2942 6.8516e+14 6.0584e+14
4327.3075 6.8516e+14 6.0578e+14
4327.3207 6.8516e+14 6.0572e+14
4327.3339 6.8516e+14 6.0567e+14
4327.3471 6.8516e+14 6.0561e+14
4327.3604 6.8516e+14 6.0555e+14
4327.3736 6.8515e+14 6.0549e+14
4327.3868 6.8515e+14 6.0543e+14
4327.4000 6.8515e+14 6.0537e+14
4327.4133 6.8515e+14 6.0532e+14
4327.4265 6.8515e+14 6.0526e+14
4327.4397 6.8515e+14 6.0520e+14
4327.4529 6.8515e+14 6.0514e+14
4327.4662 6.8515e+14 6.0508e+14
4327.4794 6.8515e+14 6.0502e+14
4327.4926 6.8515e+14 6.0497e+14
4327.5059 6.8515e+14 6.0491e+14
4327.5191 6.8515e+14 6.0485e+14
4327.5323 6.8515e+14 6.0479e+14
4327.5455 6.8515e+14 6.0473e+14
4327.5588 6.8515e+14 6.0467e+14
4327.5720 6.8515e+14 6.0461e+14
4327.5852 6.8515e+14 6.0456e+14
4327.5984 6.8515e+14 6.0450e+14
4327.6117 6.8515e+14 6.0444e+14
4327.6249 6.8515e+14 6.0438e+14
4327.6381 6.8515e+14 6.0432e+14
4327.6513 6.8515e+14 6.0426e+14
4327.6646 6.8515e+14 6.0420e+14
4327.6778 6.8514e+14 6.0414e+14
4327.6910 6.8514e+14 6.0409e+14
4327.7042 6.8514e+14 6.0403e+14
4327.7175 6.8514e+14 6.0397e+14
4327.7307 6.8514e+14 6.0391e+14
4327.7439 6.8514e+14 6.0385e+14
4327.7571 6.8514e+14 6.0379e+14
4327.7704 6.8514e+14 6.0373e+14
4327.7836 6.8514e+14 6.0367e+14
4327.7968 6.8514e+14 6.0361e+14
4327.8100 6.8514e+14 6.0355e+14
4327.8233 6.8514e+14 6.0350e+14
4327.8365 6.8514e+14 6.0344e+14
4327.8497 6.8514e+14 6.0338e+14
4327.8629 6.8514e+14 6.0332e+14
4327.8762 6.8514e+14 6.0326e+14
4327.8894 6.8514e+14 6.0320e+14
4327.9026 6.8514e+14 6.0314e+14
4327.9158 6.8514e+14 6.0308e+14
4327.9291 6.8514e+14 6.0302e+14
4327.9423 6.8514e+14 6.0296e+14
4327.9555 6.8514e+14 6.0290e+14
4327.9687 6.8514e+14 6.0284e+14
4327.9820 6.8513e+14 6.0278e+14
4327.9952 6.8513e+14 6.0272e+14
4328.0084 6.8513e+14 6.0267e+14
4328.0216 6.8513e+14 6.0261e+14
4328.0349 6.8513e+14 6.0255e+14
4328.0481 6.8513e+14 6.0249e+14
4328.0613 6.8513e+14 6.0243e+14
4328.0746 6.8513e+14 6.0237e+14
4328.0878 6.8513e+14 6.0231e+14
4328.1010 6.8513e+14 6.0225e+14
4328.1142 6.8513e+14 6.0219e+14
4328.1275 6.8513e+14 6.0213e+14
4328.1407 6.8513e+14 6.0207e+14
4328.1539 6.8513e+14 6.0201e+14
4328.1671 6.8513e+14 6.0195e+14
4328.1804 6.8513e+14 6.0189e+14
4328.1936 6.8513e+14 6.0183e+14
4328.2068 6.8513e+14 6.0177e+14
4328.2200 6.8513e+14 6.0171e+14
4328.2333 6.8513e+14 6.0165e+14
4328.2465 6.8513e+14 6.0159e+14
4328.2597 6.8513e+14 6.0153e+14
4328.2729 6.8512e+14 6.0147e+14
4328.2862 6.8512e+14 6.0141e+14
4328.2994 6.8512e+14 6.0135e+14
4328.3126 6.8512e+14 6.0129e+14
4328.3258 6.8512e+14 6.0123e+14
4328.3391 6.8512e+14 6.0117e+14
4328.3523 6.8512e+14 6.0111e+14
4328.3655 6.8512e+14 6.0105e+14
4328.3787 6.8512e+14 6.0099e+14
4328.3920 6.8512e+14 6.0093e+14
4328.4052 6.8512e+14 6.0087e+14
4328.4184 6.8512e+14 6.0081e+14
4328.4316 6.8512e+14 6.0075e+14
4328.4449 6.8512e+14 6.0069e+14
4328.4581 6.8512e+14 6.0063e+14
4328.4713 6.8512e+14 6.0057e+14
4328.4845 6.8512e+14 6.0051e+14
4328.4978 6.8512e+14 6.0045e+14
4328.5110 6.8512e+14 6.0039e+14
4328.5242 6.8512e+14 6.0033e+14
4328.5374 6.8512e+14 6.0027e+14
4328.5507 6.8512e+14 6.0021e+14
4328.5639 6.8512e+14 6.0015e+14
4328.5771 6.8511e+14 6.0009e+14
4328.5903 6.8511e+14 6.0003e+14
4328.6036 6.8511e+14 5.9997e+14
4328.6168 6.8511e+14 5.9991e+14
4328.6300 6.8511e+14 5.9985e+14
4328.6433 6.8511e+14 5.9979e+14
4328.6565 6.8511e+14 5.9973e+14
4328.6697 6.8511e+14 5.9967e+14
4328.6829 6.8511e+14 5.9961e+14
4328.6962 6.8511e+14 5.9955e+14
4328.7094 6.8511e+14 5.9949e+14
4328.7226 6.8511e+14 5.9943e+14
4328.7358 6.8511e+14 5.9937e+14
4328.7491 6.8511e+14 5.9931e+14
4328.7623 6.8511e+14 5.9925e+14
4328.7755 6.8511e+14 5.9918e+14
4328.7887 6.8511e+14 5.9912e+14
4328.8020 6.8511e+14 5.9906e+14
4328.8152 6.8511e+14 5.9900e+14
4328.8284 6.8511e+14 5.9894e+14
4328.8416 6.8511e+14 5.9888e+14
4328.8549 6.8511e+14 5.9882e+14
4328.8681 6.8511e+14 5.9876e+14
4328.8813 6.8510e+14 5.9870e+14
4328.8945 6.8510e+14 5.9864e+14
4328.9078 6.8510e+14 5.9858e+14
4328.9210 6.8510e+14 5.9852e+14
4328.9342 6.8510e+14 5.9846e+14
4328.9474 6.8510e+14 5.9840e+14
4328.9607 6.8510e+14 5.9834e+14
4328.9739 6.8510e+14 5.9827e+14
4328.9871 6.8510e+14 5.9821e+14
4329.0003 6.8510e+14 5.9815e+14
4329.0136 6.8510e+14 5.9809e+14
4329.0268 6.8510e+14 5.9803e+14
4329.0400 6.8510e+14 5.9797e+14
4329.0532 6.8510e+14 5.9791e+14
4329.0665 6.8510e+14 5.9785e+14
4329.0797 6.8510e+14 5.9779e+14
4329.0929 6.8510e+14 5.9773e+14
4329.1061 6.8510e+14 5.9767e+14
4329.1194 6.8510e+14 5.9761e+14
4329.1326 6.8510e+14 5.9754e+14
4329.1458 6.8510e+14 5.9748e+14
4329.1591 6.8510e+14 5.9742e+14
4329.1723 6.8510e+14 5.9736e+14
4329.1855 6.8509e+14 5.9730e+14
4329.1987 6.8509e+14 5.9724e+14
4329.2120 6.8509e+14 5.9718e+14
4329.2252 6.8509e+14 5.9712e+14
4329.2384 6.8509e+14 5.9706e+14
4329.2516 6.8509e+14 5.9700e+14
4329.2649 6.8509e+14 5.9693e+14
4329.2781 6.8509e+14 5.9687e+14
4329.2913 6.8509e+14 5.9681e+14
4329.3045 6.8509e+14 5.9675e+14
4329.3178 6.8509e+14 5.9669e+14
4329.3310 6.8509e+14 5.9663e+14
4329.3442 6.8509e+14 5.9657e+14
4329.3574 6.8509e+14 5.9651e+14
4329.3707 6.8509e+14 5.9645e+14
4329.3839 6.8509e+14 5.9638e+14
4329.3971 6.8509e+14 5.9632e+14
4329.4103 6.8509e+14 5.9626e+14
4329.4236 6.8509e+14 5.9620e+14
4329.4368 6.8509e+14 5.9614e+14
4329.4500 6.8509e+14 5.9608e+14
4329.4632 6.8509e+14 5.9602e+14
4329.4765 6.8508e+14 5.9596e+14
4329.4897 6.8508e+14 5.9589e+14
4329.5029 6.8508e+14 5.9583e+14
4329.5161 6.8508e+14 5.9577e+14
4329.5294 6.8508e+14 5.9571e+14
4329.5426 6.8508e+14 5.9565e+14
4329.5558 6.8508e+14 5.9559e+14
4329.5690 6.8508e+14 5.9553e+14
4329.5823 6.8508e+14 5.9547e+14
4329.5955 6.8508e+14 5.9540e+14
4329.6087 6.8508e+14 5.9534e+14
4329.6219 6.8508e+14 5.9528e+14
4329.6352 6.8508e+14 5.9522e+14
4329.6484 6.8508e+14 5.9516e+14
4329.6616 6.8508e+14 5.9510e+14
4329.6748 6.8508e+14 5.9504e+14
4329.6881 6.8508e+14 5.9497e+14
4329.7013 6.8508e+14 5.9491e+14
4329.7145 6.8508e+14 5.9485e+14
4329.7278 6.8508e+14 5.9479e+14
4329.7410 6.8508e+14 5.9473e+14
4329.7542 6.8508e+14 5.9467e+14
4329.7674 6.8508e+14 5.9461e+14
4329.7807 6.8507e+14 5.9454e+14
4329.7939 6.8507e+14 5.9448e+14
4329.8071 6.8507e+14 5.9442e+14
4329.8203 6.8507e+14 5.9436e+14
4329.8336 6.8507e+14 5.9430e+14
4329.8468 6.8507e+14 5.9424e+14
4329.8600 6.8507e+14 5.9418e+14
4329.8732 6.8507e+14 5.9411e+14
4329.8865 6.8507e+14 5.9405e+14
4329.8997 6.8507e+14 5.9399e+14
4329.9129 6.8507e+14 5.9393e+14
4329.9261 6.8507e+14 5.9387e+14
4329.9394 6.8507e+14 5.9381e+14
4329.9526 6.8507e+14 5.9375e+14
4329.9658 6.8507e+14 5.9368e+14
4329.9790 6.8507e+14 5.9362e+14
4329.9923 6.8507e+14 5.9356e+14
4330.0055 6.8507e+14 5.9350e+14
4330.0187 6.8507e+14 5.9344e+14
4330.0319 6.8507e+14 5.9338e+14
4330.0452 6.8507e+14 5.9332e+14
4330.0584 6.8507e+14 5.9325e+14
4330.0716 6.8506e+14 5.9319e+14
4330.0848 6.8506e+14 5.9313e+14
4330.0981 6.8506e+14 5.9307e+14
4330.1113 6.8506e+14 5.9301e+14
4330.1245 6.8506e+14 5.9295e+14
4330.1377 6.8506e+14 5.9288e+14
4330.1510 6.8506e+14 5.9282e+14
4330.1642 6.8506e+14 5.9276e+14
4330.1774 6.8506e+14 5.9270e+14
4330.1906 6.8506e+14 5.9264e+14
4330.2039 6.8506e+14 5.9258e+14
4330.2171 6.8506e+14 5.9251e+14
4330.2303 6.8506e+14 5.9245e+14
4330.2435 6.8506e+14 5.9239e+14
4330.2568 6.8506e+14 5.9233e+14
4330.2700 6.8506e+14 5.9227e+14
4330.2832 6.8506e+14 5.9221e+14
4330.2965 6.8506e+14 5.9215e+14
4330.3097 6.8506e+14 5.9208e+14
4330.3229 6.8506e+14 5.9202e+14
4330.3361 6.8506e+14 5.9196e+14
4330.3494 6.8506e+14 5.9190e+14
4330.3626 6.8506e+14 5.9184e+14
4330.3758 6.8505e+14 5.9178e+14
4330.3890 6.8505e+14 5.9171e+14
4330.4023 6.8505e+14 5.9165e+14
4330.4155 6.8505e+14 5.9159e+14
4330.4287 6.8505e+14 5.9153e+14
4330.4419 6.8505e+14 5.9147e+14
4330.4552 6.8505e+14 5.9141e+14
4330.4684 6.8505e+14 5.9134e+14
4330.4816 6.8505e+14 5.9128e+14
4330.4948 6.8505e+14 5.9122e+14
4330.5081 6.8505e+14 5.9116e+14
4330.5213 6.8505e+14 5.9110e+14
4330.5345 6.8505e+14 5.9104e+14
4330.5477 6.8505e+14 5.9098e+14
4330.5610 6.8505e+14 5.9091e+14
4330.5742 6.8505e+14 5.9085e+14
4330.5874 6.8505e+14 5.9079e+14
4330.6006 6.8505e+14 5.9073e+14
4330.6139 6.8505e+14 5.9067e+14
4330.6271 6.8505e+14 5.9061e+14
4330.6403 6.8505e+14 5.9054e+14
4330.6535 6.8505e+14 5.9048e+14
4330.6668 6.8505e+14 5.9042e+14
4330.6800 6.8504e+14 5.9036e+14
4330.6932 6.8504e+14 5.9030e+14
4330.7064 6.8504e+14 5.9024e+14
4330.7197 6.8504e+14 5.9017e+14
4330.7329 6.8504e+14 5.9011e+14
4330.7461 6.8504e+14 5.9005e+14
4330.7593 6.8504e+14 5.8999e+14
4330.7726 6.8504e+14 5.8993e+14
4330.7858 6.8504e+14 5.8987e+14
4330.7990 6.8504e+14 5.8981e+14
4330.8122 6.8504e+14 5.8974e+14
4330.8255 6.8504e+14 5.8968e+14
4330.8387 6.8504e+14 5.8962e+14
4330.8519 6.8504e+14 5.8956e+14
4330.8652 6.8504e+14 5.8950e+14
4330.8784 6.8504e+14 5.8944e+14
4330.8916 6.8504e+14 5.8938e+14
4330.9048 6.8504e+14 5.8931e+14
4330.9181 6.8504e+14 5.8925e+14
4330.9313 6.8504e+14 5.8919e+14
4330.9445 6.8504e+14 5.8913e+14
4330.9577 6.8504e+14 5.8907e+14
4330.9710 6.8503e+14 5.8901e+14
4330.9842 6.8503e+14 5.8895e+14
4330.9974 6.8503e+14 5.8888e+14
4331.0106 6.8503e+14 5.8882e+14
4331.0239 6.8503e+14 5.8876e+14
4331.0371 6.8503e+14 5.8870e+14
4331.0503 6.8503e+14 5.8864e+14
4331.0635 6.8503e+14 5.8858e+14
4331.0768 6.8503e+14 5.8852e+14
4331.0900 6.8503e+14 5.8845e+14
4331.1032 6.8503e+14 5.8839e+14
4331.1164 6.8503e+14 5.8833e+14
4331.1297 6.8503e+14 5.8827e+14
4331.1429 6.8503e+14 5.8821e+14
4331.1561 6.8503e+14 5.8815e+14
4331.1693 6.8503e+14 5.8809e+14
4331.1826 6.8503e+14 5.8802e+14
4331.1958 6.8503e+14 5.8796e+14
4331.2090 6.8503e+14 5.8790e+14
4331.2222 6.8503e+14 5.8784e+14
4331.2355 6.8503e+14 5.8778e+14
4331.2487 6.8503e+14 5.8772e+14
4331.2619 6.8502e+14 5.8766e+14
4331.2751 6.8502e+14 5.8760e+14
4331.2884 6.8502e+14 5.8753e+14
4331.3016 6.8502e+14 5.8747e+14
4331.3148 6.8502e+14 5.8741e+14
4331.3280 6.8502e+14 5.8735e+14
4331.3413 6.8502e+14 5.8729e+14
4331.3545 6.8502e+14 5.8723e+14
4331.3677 6.8502e+14 5.8717e+14
4331.3810 6.8502e+14 5.8711e+14
4331.3942 6.8502e+14 5.8705e+14
4331.4074 6.8502e+14 5.8698e+14
4331.4206 6.8502e+14 5.8692e+14
4331.4339 6.8502e+14 5.8686e+14
4331.4471 6.8502e+14 5.8680e+14
4331.4603 6.8502e+14 5.8674e+14
4331.4735 6.8502e+14 5.8668e+14
4331.4868 6.8502e+14 5.8662e+14
4331.5000 6.8502e+14 5.8656e+14
4331.5132 6.8502e+14 5.8650e+14
4331.5264 6.8502e+14 5.8643e+14
4331.5397 6.8502e+14 5.8637e+14
4331.5529 6.8502e+14 5.8631e+14
4331.5661 6.8501e+14 5.8625e+14
4331.5793 6.8501e+14 5.8619e+14
4331.5926 6.8501e+14 5.8613e+14
4331.6058 6.8501e+14 5.8607e+14
4331.6190 6.8501e+14 5.8601e+14
4331.6322 6.8501e+14 5.8595e+14
4331.6455 6.8501e+14 5.8589e+14
4331.6587 6.8501e+14 5.8583e+14
4331.6719 6.8501e+14 5.8577e+14
4331.6851 6.8501e+14 5.8570e+14
4331.6984 6.8501e+14 5.8564e+14
4331.7116 6.8501e+14 5.8558e+14
4331.7248 6.8501e+14 5.8552e+14
4331.7380 6.8501e+14 5.8546e+14
4331.7513 6.8501e+14 5.8540e+14
4331.7645 6.8501e+14 5.8534e+14
4331.7777 6.8501e+14 5.8528e+14
4331.7909 6.8501e+14 5.8522e+14
4331.8042 6.8501e+14 5.8516e+14
4331.8174 6.8501e+14 5.8510e+14
4331.8306 6.8501e+14 5.8504e+14
4331.8438 6.8501e+14 5.8498e+14
4331.8571 6.8500e+14 5.8492e+14
4331.8703 6.8500e+14 5.8486e+14
4331.8835 6.8500e+14 5.8479e+14
4331.8967 6.8500e+14 5.8473e+14
4331.9100 6.8500e+14 5.8467e+14
4331.9232 6.8500e+14 5.8461e+14
4331.9364 6.8500e+14 5.8455e+14
4331.9497 6.8500e+14 5.8449e+14
4331.9629 6.8500e+14 5.8443e+14
4331.9761 6.8500e+14 5.8437e+14
4331.9893 6.8500e+14 5.8431e+14
4332.0026 6.8500e+14 5.8425e+14
4332.0158 6.8500e+14 5.8419e+14
4332.0290 6.8500e+14 5.8413e+14
4332.0422 6.8500e+14 5.8407e+14
4332.0555 6.8500e+14 5.8401e+14
4332.0687 6.8500e+14 5.8395e+14
4332.0819 6.8500e+14 5.8389e+14
4332.0951 6.8500e+14 5.8383e+14
4332.1084 6.8500e+14 5.8377e+14
4332.1216 6.8500e+14 5.8371e+14
4332.1348 6.8500e+14 5.8365e+14
4332.1480 6.8500e+14 5.8359e+14
4332.1613 6.8499e+14 5.8353e+14
4332.1745 6.8499e+14 5.8347e+14
4332.1877 6.8499e+14 5.8341e+14
4332.2009 6.8499e+14 5.8335e+14
4332.2142 6.8499e+14 5.8329e+14
4332.2274 6.8499e+14 5.8323e+14
4332.2406 6.8499e+14 5.8317e+14
4332.2538 6.8499e+14 5.8311e+14
4332.2671 6.8499e+14 5.8305e+14
4332.2803 6.8499e+14 5.8299e+14
4332.2935 6.8499e+14 5.8293e+14
4332.3067 6.8499e+14 5.8287e+14
4332.3200 6.8499e+14 5.8281e+14
4332.3332 6.8499e+14 5.8275e+14
4332.3464 6.8499e+14 5.8269e+14
4332.3596 6.8499e+14 5.8263e+14
4332.3729 6.8499e+14 5.8257e+14
4332.3861 6.8499e+14 5.8251e+14
4332.3993 6.8499e+14 5.8245e+14
4332.4125 6.8499e+14 5.8239e+14
4332.4258 6.8499e+14 5.8233e+14
4332.4390 6.8499e+14 5.8227e+14
4332.4522 6.8498e+14 5.8222e+14
4332.4654 6.8498e+14 5.8216e+14
4332.4787 6.8498e+14 5.8210e+14
4332.4919 6.8498e+14 5.8204e+14
4332.5051 6.8498e+14 5.8198e+14
4332.5184 6.8498e+14 5.8192e+14
4332.5316 6.8498e+14 5.8186e+14
4332.5448 6.8498e+14 5.8180e+14
4332.5580 6.8498e+14 5.8174e+14
4332.5713 6.8498e+14 5.8168e+14
4332.5845 6.8498e+14 5.8162e+14
4332.5977 6.8498e+14 5.8156e+14
4332.6109 6.8498e+14 5.8150e+14
4332.6242 6.8498e+14 5.8145e+14
4332.6374 6.8498e+14 5.8139e+14
4332.6506 6.8498e+14 5.8133e+14
4332.6638 6.8498e+14 5.8127e+14
4332.6771 6.8498e+14 5.8121e+14
4332.6903 6.8498e+14 5.8115e+14
4332.7035 6.8498e+14 5.8109e+14
4332.7167 6.8498e+14 5.8103e+14
4332.7300 6.8498e+14 5.8097e+14
4332.7432 6.8497e+14 5.8092e+14
4332.7564 6.8497e+14 5.8086e+14
4332.7696 6.8497e+14 5.8080e+14
4332.7829 6.8497e+14 5.8074e+14
4332.7961 6.8497e+14 5.8068e+14
4332.8093 6.8497e+14 5.8062e+14
4332.8225 6.8497e+14 5.8056e+14
4332.8358 6.8497e+14 5.8051e+14
4332.8490 6.8497e+14 5.8045e+14
4332.8622 6.8497e+14 5.8039e+14
4332.8754 6.8497e+14 5.8033e+14
4332.8887 6.8497e+14 5.8027e+14
4332.9019 6.8497e+14 5.8021e+14
4332.9151 6.8497e+14 5.8016e+14
4332.9283 6.8497e+14 5.8010e+14
4332.9416 6.8497e+14 5.8004e+14
4332.9548 6.8497e+14 5.7998e+14
4332.9680 6.8497e+14 5.7992e+14
4332.9812 6.8497e+14 5.7986e+14
4332.9945 6.8497e+14 5.7981e+14
4333.0077 6.8497e+14 5.7975e+14
4333.0209 6.8497e+14 5.7969e+14
4333.0342 6.8497e+14 5.7963e+14
4333.0474 6.8496e+14 5.7957e+14
4333.0606 6.8496e+14 5.7952e+14
4333.0738 6.8496e+14 5.7946e+14
4333.0871 6.8496e+14 5.7940e+14
4333.1003 6.8496e+14 5.7934e+14
4333.1135 6.8496e+14 5.7929e+14
4333.1267 6.8496e+14 5.7923e+14
4333.1400 6.8496e+14 5.7917e+14
4333.1532 6.8496e+14 5.7911e+14
4333.1664 6.8496e+14 5.7906e+14
4333.1796 6.8496e+14 5.7900e+14
4333.1929 6.8496e+14 5.7894e+14
4333.2061 6.8496e+14 5.7888e+14
4333.2193 6.8496e+14 5.7883e+14
4333.2325 6.8496e+14 5.7877e+14
4333.2458 6.8496e+14 5.7871e+14
4333.2590 6.8496e+14 5.7865e+14
4333.2722 6.8496e+14 5.7860e+14
4333.2854 6.8496e+14 5.7854e+14
4333.2987 6.8496e+14 5.7848e+14
4333.3119 6.8496e+14 5.7843e+14
4333.3251 6.8496e+14 5.7837e+14
4333.3383 6.8495e+14 5.7831e+14
4333.3516 6.8495e+14 5.7825e+14
4333.3648 6.8495e+14 5.7820e+14
4333.3780 6.8495e+14 5.7814e+14
4333.3912 6.8495e+14 5.7808e+14
4333.4045 6.8495e+14 5.7803e+14
4333.4177 6.8495e+14 5.7797e+14
4333.4309 6.8495e+14 5.7791e+14
4333.4441 6.8495e+14 5.7786e+14
4333.4574 6.8495e+14 5.7780e+14
4333.4706 6.8495e+14 5.7774e+14
4333.4838 6.8495e+14 5.7769e+14
4333.4970 6.8495e+14 5.7763e+14
4333.5103 6.8495e+14 5.7758e+14
4333.5235 6.8495e+14 5.7752e+14
4333.5367 6.8495e+14 5.7746e+14
4333.5499 6.8495e+14 5.7741e+14
4333.5632 6.8495e+14 5.7735e+14
4333.5764 6.8495e+14 5.7729e+14
4333.5896 6.8495e+14 5.7724e+14
4333.6029 6.8495e+14 5.7718e+14
4333.6161 6.8495e+14 5.7713e+14
4333.6293 6.8494e+14 5.7707e+14
4333.6425 6.8494e+14 5.7701e+14
4333.6558 6.8494e+14 5.7696e+14
4333.6690 6.8494e+14 5.7690e+14
4333.6822 6.8494e+14 5.7685e+14
4333.6954 6.8494e+14 5.7679e+14
4333.7087 6.8494e+14 5.7674e+14
4333.7219 6.8494e+14 5.7668e+14
4333.7351 6.8494e+14 5.7662e+14
4333.7483 6.8494e+14 5.7657e+14
4333.7616 6.8494e+14 5.7651e+14
4333.7748 6.8494e+14 5.7646e+14
4333.7880 6.8494e+14 5.7640e+14
4333.8012 6.8494e+14 5.7635e+14
4333.8145 6.8494e+14 5.7629e+14
4333.8277 6.8494e+14 5.7624e+14
4333.8409 6.8494e+14 5.7618e+14
4333.8541 6.8494e+14 5.7613e+14
4333.8674 6.8494e+14 5.7607e+14
4333.8806 6.8494e+14 5.7602e+14
4333.8938 6.8494e+14 5.7596e+14
4333.9070 6.8494e+14 5.7591e+14
4333.9203 6.8493e+14 5.7585e+14
4333.9335 6.8493e+14 5.7580e+14
4333.9467 6.8493e+14 5.7574e+14
4333.9599 6.8493e+14 5.7569e+14
4333.9732 6.8493e+14 5.7563e+14
4333.9864 6.8493e+14 5.7558e+14
4333.9996 6.8493e+14 5.7553e+14
4334.0128 6.8493e+14 5.7547e+14
4334.0261 6.8493e+14 5.7542e+14
4334.0393 6.8493e+14 5.7536e+14
4334.0525 6.8493e+14 5.7531e+14
4334.0657 6.8493e+14 5.7525e+14
4334.0790 6.8493e+14 5.7520e+14
4334.0922 6.8493e+14 5.7515e+14
4334.1054 6.8493e+14 5.7509e+14
4334.1186 6.8493e+14 5.7504e+14
4334.1319 6.8493e+14 5.7498e+14
4334.1451 6.8493e+14 5.7493e+14
4334.1583 6.8493e+14 5.7488e+14
4334.1716 6.8493e+14 5.7482e+14
4334.1848 6.8493e+14 5.7477e+14
4334.1980 6.8493e+14 5.7472e+14
4334.2112 6.8492e+14 5.7466e+14
4334.2245 6.8492e+14 5.7461e+14
4334.2377 6.8492e+14 5.7456e+14
4334.2509 6.8492e+14 5.7450e+14
4334.2641 6.8492e+14 5.7445e+14
4334.2774 6.8492e+14 5.7440e+14
4334.2906 6.8492e+14 5.7434e+14
4334.3038 6.8492e+14 5.7429e+14
4334.3170 6.8492e+14 5.7424e+14
4334.3303 6.8492e+14 5.7418e+14
4334.3435 6.8492e+14 5.7413e+14
4334.3567 6.8492e+14 5.7408e+14
4334.3699 6.8492e+14 5.7402e+14
4334.3832 6.8492e+14 5.7397e+14
4334.3964 6.8492e+14 5.7392e+14
4334.4096 6.8492e+14 5.7387e+14
4334.4228 6.8492e+14 5.7381e+14
4334.4361 6.8492e+14 5.7376e+14
4334.4493 6.8492e+14 5.7371e+14
4334.4625 6.8492e+14 5.7366e+14
4334.4757 6.8492e+14 5.7360e+14
4334.4890 6.8492e+14 5.7355e+14
4334.5022 6.8492e+14 5.7350e+14
4334.5154 6.8491e+14 5.7345e+14
4334.5286 6.8491e+14 5.7340e+14
4334.5419 6.8491e+14 5.7334e+14
4334.5551 6.8491e+14 5.7329e+14
4334.5683 6.8491e+14 5.7324e+14
4334.5815 6.8491e+14 5.7319e+14
4334.5948 6.8491e+14 5.7314e+14
4334.6080 6.8491e+14 5.7309e+14
4334.6212 6.8491e+14 5.7303e+14
4334.6344 6.8491e+14 5.7298e+14
4334.6477 6.8491e+14 5.7293e+14
4334.6609 6.8491e+14 5.7288e+14
4334.6741 6.8491e+14 5.7283e+14
4334.6873 6.8491e+14 5.7278e+14
4334.7006 6.8491e+14 5.7273e+14
4334.7138 6.8491e+14 5.7268e+14
4334.7270 6.8491e+14 5.7263e+14
4334.7403 6.8491e+14 5.7257e+14
4334.7535 6.8491e+14 5.7252e+14
4334.7667 6.8491e+14 5.7247e+14
4334.7799 6.8491e+14 5.7242e+14
4334.7932 6.8491e+14 5.7237e+14
4334.8064 6.8490e+14 5.7232e+14
4334.8196 6.8490e+14 5.7227e+14
4334.8328 6.8490e+14 5.7222e+14
4334.8461 6.8490e+14 5.7217e+14
4334.8593 6.8490e+14 5.7212e+14
4334.8725 6.8490e+14 5.7207e+14
4334.8857 6.8490e+14 5.7202e+14
4334.8990 6.8490e+14 5.7197e+14
4334.9122 6.8490e+14 5.7192e+14
4334.9254 6.8490e+14 5.7187e+14
4334.9386 6.8490e+14 5.7182e+14
4334.9519 6.8490e+14 5.7177e+14
4334.9651 6.8490e+14 5.7172e+14
4334.9783 6.8490e+14 5.7167e+14
4334.9915 6.8490e+14 5.7162e+14
4335.0048 6.8490e+14 5.7157e+14
4335.0180 6.8490e+14 5.7152e+14
4335.0312 6.8490e+14 5.7147e+14
4335.0444 6.8490e+14 5.7142e+14
4335.0577 6.8490e+14 5.7137e+14
4335.0709 6.8490e+14 5.7133e+14
4335.0841 6.8490e+14 5.7128e+14
4335.0973 6.8489e+14 5.7123e+14
4335.1106 6.8489e+14 5.7118e+14
4335.1238 6.8489e+14 5.7113e+14
4335.1370 6.8489e+14 5.7108e+14
4335.1502 6.8489e+14 5.7103e+14
4335.1635 6.8489e+14 5.7098e+14
4335.1767 6.8489e+14 5.7094e+14
4335.1899 6.8489e+14 5.7089e+14
4335.2031 6.8489e+14 5.7084e+14
4335.2164 6.8489e+14 5.7079e+14
4335.2296 6.8489e+14 5.7074e+14
4335.2428 6.8489e+14 5.7070e+14
4335.2561 6.8489e+14 5.7065e+14
4335.2693 6.8489e+14 5.7060e+14
4335.2825 6.8489e+14 5.7055e+14
4335.2957 6.8489e+14 5.7050e+14
4335.3090 6.8489e+14 5.7046e+14
4335.3222 6.8489e+14 5.7041e+14
4335.3354 6.8489e+14 5.7036e+14
4335.3486 6.8489e+14 5.7031e+14
4335.3619 6.8489e+14 5.7027e+14
4335.3751 6.8489e+14 5.7022e+14
4335.3883 6.8488e+14 5.7017e+14
4335.4015 6.8488e+14 5.7013e+14
4335.4148 6.8488e+14 5.7008e+14
4335.4280 6.8488e+14 5.7003e+14
4335.4412 6.8488e+14 5.6998e+14
4335.4544 6.8488e+14 5.6994e+14
4335.4677 6.8488e+14 5.6989e+14
4335.4809 6.8488e+14 5.6985e+14
4335.4941 6.8488e+14 5.6980e+14
4335.5073 6.8488e+14 5.6975e+14
4335.5206 6.8488e+14 5.6971e+14
4335.5338 6.8488e+14 5.6966e+14
4335.5470 6.8488e+14 5.6961e+14
4335.5602 6.8488e+14 5.6957e+14
4335.5735 6.8488e+14 5.6952e+14
4335.5867 6.8488e+14 5.6948e+14
4335.5999 6.8488e+14 5.6943e+14
4335.6131 6.8488e+14 5.6938e+14
4335.6264 6.8488e+14 5.6934e+14
4335.6396 6.8488e+14 5.6929e+14
4335.6528 6.8488e+14 5.6925e+14
4335.6660 6.8488e+14 5.6920e+14
4335.6793 6.8487e+14 5.6916e+14
4335.6925 6.8487e+14 5.6911e+14
4335.7057 6.8487e+14 5.6907e+14
4335.7189 6.8487e+14 5.6902e+14
4335.7322 6.8487e+14 5.6898e+14
4335.7454 6.8487e+14 5.6893e+14
4335.7586 6.8487e+14 5.6889e+14
4335.7718 6.8487e+14 5.6884e+14
4335.7851 6.8487e+14 5.6880e+14
4335.7983 6.8487e+14 5.6875e+14
4335.8115 6.8487e+14 5.6871e+14
4335.8248 6.8487e+14 5.6867e+14
4335.8380 6.8487e+14 5.6862e+14
4335.8512 6.8487e+14 5.6858e+14
4335.8644 6.8487e+14 5.6853e+14
4335.8777 6.8487e+14 5.6849e+14
4335.8909 6.8487e+14 5.6845e+14
4335.9041 6.8487e+14 5.6840e+14
4335.9173 6.8487e+14 5.6836e+14
4335.9306 6.8487e+14 5.6831e+14
4335.9438 6.8487e+14 5.6827e+14
4335.9570 6.8487e+14 5.6823e+14
4335.9702 6.8486e+14 5.6818e+14
4335.9835 6.8486e+14 5.6814e+14
4335.9967 6.8486e+14 5.6810e+14
4336.0099 6.8486e+14 5.6806e+14
4336.0231 6.8486e+14 5.6801e+14
4336.0364 6.8486e+14 5.6797e+14
4336.0496 6.8486e+14 5.6793e+14
4336.0628 6.8486e+14 5.6788e+14
4336.0760 6.8486e+14 5.6784e+14
4336.0893 6.8486e+14 5.6780e+14
4336.1025 6.8486e+14 5.6776e+14
4336.1157 6.8486e+14 5.6772e+14
4336.1289 6.8486e+14 5.6767e+14
4336.1422 6.8486e+14 5.6763e+14
4336.1554 6.8486e+14 5.6759e+14
4336.1686 6.8486e+14 5.6755e+14
4336.1818 6.8486e+14 5.6751e+14
4336.1951 6.8486e+14 5.6746e+14
4336.2083 6.8486e+14 5.6742e+14
4336.2215 6.8486e+14 5.6738e+14
4336.2347 6.8486e+14 5.6734e+14
4336.2480 6.8486e+14 5.6730e+14
4336.2612 6.8485e+14 5.6726e+14
4336.2744 6.8485e+14 5.6722e+14
4336.2876 6.8485e+14 5.6718e+14
4336.3009 6.8485e+14 5.6714e+14
4336.3141 6.8485e+14 5.6709e+14
4336.3273 6.8485e+14 5.6705e+14
4336.3405 6.8485e+14 5.6701e+14
4336.3538 6.8485e+14 5.6697e+14
4336.3670 6.8485e+14 5.6693e+14
4336.3802 6.8485e+14 5.6689e+14
4336.3935 6.8485e+14 5.6685e+14
4336.4067 6.8485e+14 5.6681e+14
4336.4199 6.8485e+14 5.6677e+14
4336.4331 6.8485e+14 5.6673e+14
4336.4464 6.8485e+14 5.6669e+14
4336.4596 6.8485e+14 5.6665e+14
4336.4728 6.8485e+14 5.6661e+14
4336.4860 6.8485e+14 5.6657e+14
4336.4993 6.8485e+14 5.6653e+14
4336.5125 6.8485e+14 5.6650e+14
4336.5257 6.8485e+14 5.6646e+14
4336.5389 6.8485e+14 5.6642e+14
4336.5522 6.8484e+14 5.6638e+14
4336.5654 6.8484e+14 5.6634e+14
4336.5786 6.8484e+14 5.6630e+14
4336.5918 6.8484e+14 5.6626e+14
4336.6051 6.8484e+14 5.6622e+14
4336.6183 6.8484e+14 5.6619e+14
4336.6315 6.8484e+14 5.6615e+14
4336.6447 6.8484e+14 5.6611e+14
4336.6580 6.8484e+14 5.6607e+14
4336.6712 6.8484e+14 5.6603e+14
4336.6844 6.8484e+14 5.6600e+14
4336.6976 6.8484e+14 5.6596e+14
4336.7109 6.8484e+14 5.6592e+14
4336.7241 6.8484e+14 5.6588e+14
4336.7373 6.8484e+14 5.6585e+14
4336.7505 6.8484e+14 5.6581e+14
4336.7638 6.8484e+14 5.6577e+14
4336.7770 6.8484e+14 5.6573e+14
4336.7902 6.8484e+14 5.6570e+14
4336.8034 6.8484e+14 5.6566e+14
4336.8167 6.8484e+14 5.6562e+14
4336.8299 6.8484e+14 5.6559e+14
4336.8431 6.8483e+14 5.6555e+14
4336.8563 6.8483e+14 5.6551e+14
4336.8696 6.8483e+14 5.6548e+14
4336.8828 6.8483e+14 5.6544e+14
4336.8960 6.8483e+14 5.6540e+14
4336.9093 6.8483e+14 5.6537e+14
4336.9225 6.8483e+14 5.6533e+14
4336.9357 6.8483e+14 5.6530e+14
4336.9489 6.8483e+14 5.6526e+14
4336.9622 6.8483e+14 5.6523e+14
4336.9754 6.8483e+14 5.6519e+14
4336.9886 6.8483e+14 5.6515e+14
4337.0018 6.8483e+14 5.6512e+14
4337.0151 6.8483e+14 5.6508e+14
4337.0283 6.8483e+14 5.6505e+14
4337.0415 6.8483e+14 5.6501e+14
4337.0547 6.8483e+14 5.6498e+14
4337.0680 6.8483e+14 5.6495e+14
4337.0812 6.8483e+14 5.6491e+14
4337.0944 6.8483e+14 5.6488e+14
4337.1076 6.8483e+14 5.6484e+14
4337.1209 6.8482e+14 5.6481e+14
4337.1341 6.8482e+14 5.6477e+14
4337.1473 6.8482e+14 5.6474e+14
4337.1605 6.8482e+14 5.6471e+14
4337.1738 6.8482e+14 5.6467e+14
4337.1870 6.8482e+14 5.6464e+14
4337.2002 6.8482e+14 5.6460e+14
4337.2134 6.8482e+14 5.6457e+14
4337.2267 6.8482e+14 5.6454e+14
4337.2399 6.8482e+14 5.6450e+14
4337.2531 6.8482e+14 5.6447e+14
4337.2663 6.8482e+14 5.6444e+14
4337.2796 6.8482e+14 5.6441e+14
4337.2928 6.8482e+14 5.6437e+14
4337.3060 6.8482e+14 5.6434e+14
4337.3192 6.8482e+14 5.6431e+14
4337.3325 6.8482e+14 5.6428e+14
4337.3457 6.8482e+14 5.6424e+14
4337.3589 6.8482e+14 5.6421e+14
4337.3721 6.8482e+14 5.6418e+14
4337.3854 6.8482e+14 5.6415e+14
4337.3986 6.8482e+14 5.6412e+14
4337.4118 6.8481e+14 5.6408e+14
4337.4250 6.8481e+14 5.6405e+14
4337.4383 6.8481e+14 5.6402e+14
4337.4515 6.8481e+14 5.6399e+14
4337.4647 6.8481e+14 5.6396e+14
4337.4780 6.8481e+14 5.6393e+14
4337.4912 6.8481e+14 5.6390e+14
4337.5044 6.8481e+14 5.6387e+14
4337.5176 6.8481e+14 5.6383e+14
4337.5309 6.8481e+14 5.6380e+14
4337.5441 6.8481e+14 5.6377e+14
4337.5573 6.8481e+14 5.6374e+14
4337.5705 6.8481e+14 5.6371e+14
4337.5838 6.8481e+14 5.6368e+14
4337.5970 6.8481e+14 5.6365e+14
4337.6102 6.8481e+14 5.6362e+14
4337.6234 6.8481e+14 5.6359e+14
4337.6367 6.8481e+14 5.6356e+14
4337.6499 6.8481e+14 5.6353e+14
4337.6631 6.8481e+14 5.6350e+14
4337.6763 6.8481e+14 5.6348e+14
4337.6896 6.8481e+14 5.6345e+14
4337.7028 6.8480e+14 5.6342e+14
4337.7160 6.8480e+14 5.6339e+14
4337.7292 6.8480e+14 5.6336e+14
4337.7425 6.8480e+14 5.6333e+14
4337.7557 6.8480e+14 5.6330e+14
4337.7689 6.8480e+14 5.6327e+14
4337.7821 6.8480e+14 5.6325e+14
4337.7954 6.8480e+14 5.6322e+14
4337.8086 6.8480e+14 5.6319e+14
4337.8218 6.8480e+14 5.6316e+14
4337.8350 6.8480e+14 5.6313e+14
4337.8483 6.8480e+14 5.6311e+14
4337.8615 6.8480e+14 5.6308e+14
4337.8747 6.8480e+14 5.6305e+14
4337.8879 6.8480e+14 5.6302e+14
4337.9012 6.8480e+14 5.6300e+14
4337.9144 6.8480e+14 5.6297e+14
4337.9276 6.8480e+14 5.6294e+14
4337.9408 6.8480e+14 5.6292e+14
4337.9541 6.8480e+14 5.6289e+14
4337.9673 6.8480e+14 5.6286e+14
4337.9805 6.8480e+14 5.6284e+14
4337.9937 6.8479e+14 5.6281e+14
4338.0070 6.8479e+14 5.6278e+14
4338.0202 6.8479e+14 5.6276e+14
4338.0334 6.8479e+14 5.6273e+14
4338.0467 6.8479e+14 5.6271e+14
4338.0599 6.8479e+14 5.6268e+14
4338.0731 6.8479e+14 5.6265e+14
4338.0863 6.8479e+14 5.6263e+14
4338.0996 6.8479e+14 5.6260e+14
4338.1128 6.8479e+14 5.6258e+14
4338.1260 6.8479e+14 5.6255e+14
4338.1392 6.8479e+14 5.6253e+14
4338.1525 6.8479e+14 5.6250e+14
4338.1657 6.8479e+14 5.6248e+14
4338.1789 6.8479e+14 5.6245e+14
4338.1921 6.8479e+14 5.6243e+14
4338.2054 6.8479e+14 5.6241e+14
4338.2186 6.8479e+14 5.6238e+14
4338.2318 6.8479e+14 5.6236e+14
4338.2450 6.8479e+14 5.6233e+14
4338.2583 6.8479e+14 5.6231e+14
4338.2715 6.8479e+14 5.6229e+14
4338.2847 6.8478e+14 5.6226e+14
4338.2979 6.8478e+14 5.6224e+14
4338.3112 6.8478e+14 5.6222e+14
4338.3244 6.8478e+14 5.6219e+14
4338.3376 6.8478e+14 5.6217e+14
4338.3508 6.8478e+14 5.6215e+14
4338.3641 6.8478e+14 5.6212e+14
4338.3773 6.8478e+14 5.6210e+14
4338.3905 6.8478e+14 5.6208e+14
4338.4037 6.8478e+14 5.6206e+14
4338.4170 6.8478e+14 5.6203e+14
4338.4302 6.8478e+14 5.6201e+14
4338.4434 6.8478e+14 5.6199e+14
4338.4566 6.8478e+14 5.6197e+14
4338.4699 6.8478e+14 5.6195e+14
4338.4831 6.8478e+14 5.6192e+14
4338.4963 6.8478e+14 5.6190e+14
4338.5095 6.8478e+14 5.6188e+14
4338.5228 6.8478e+14 5.6186e+14
4338.5360 6.8478e+14 5.6184e+14
4338.5492 6.8478e+14 5.6182e+14
4338.5624 6.8477e+14 5.6180e+14
4338.5757 6.8477e+14 5.6178e+14
4338.5889 6.8477e+14 5.6176e+14
4338.6021 6.8477e+14 5.6174e+14
4338.6154 6.8477e+14 5.6172e+14
4338.6286 6.8477e+14 5.6170e+14
4338.6418 6.8477e+14 5.6168e+14
4338.6550 6.8477e+14 5.6166e+14
4338.6683 6.8477e+14 5.6164e+14
4338.6815 6.8477e+14 5.6162e+14
4338.6947 6.8477e+14 5.6160e+14
4338.7079 6.8477e+14 5.6158e+14
4338.7212 6.8477e+14 5.6156e+14
4338.7344 6.8477e+14 5.6154e+14
4338.7476 6.8477e+14 5.6152e+14
4338.7608 6.8477e+14 5.6150e+14
4338.7741 6.8477e+14 5.6148e+14
4338.7873 6.8477e+14 5.6147e+14
4338.8005 6.8477e+14 5.6145e+14
4338.8137 6.8477e+14 5.6143e+14
4338.8270 6.8477e+14 5.6141e+14
4338.8402 6.8477e+14 5.6139e+14
4338.8534 6.8476e+14 5.6137e+14
4338.8666 6.8476e+14 5.6136e+14
4338.8799 6.8476e+14 5.6134e+14
4338.8931 6.8476e+14 5.6132e+14
4338.9063 6.8476e+14 5.6130e+14
4338.9195 6.8476e+14 5.6129e+14
4338.9328 6.8476e+14 5.6127e+14
4338.9460 6.8476e+14 5.6125e+14
4338.9592 6.8476e+14 5.6124e+14
4338.9724 6.8476e+14 5.6122e+14
4338.9857 6.8476e+14 5.6120e+14
4338.9989 6.8476e+14 5.6119e+14
4339.0121 6.8476e+14 5.6117e+14
4339.0253 6.8476e+14 5.6115e+14
4339.0386 6.8476e+14 5.6114e+14
4339.0518 6.8476e+14 5.6112e+14
4339.0650 6.8476e+14 5.6111e+14
4339.0782 6.8476e+14 5.6109e+14
4339.0915 6.8476e+14 5.6108e+14
4339.1047 6.8476e+14 5.6106e+14
4339.1179 6.8476e+14 5.6105e+14
4339.1312 6.8476e+14 5.6103e+14
4339.1444 6.8475e+14 5.6102e+14
4339.1576 6.8475e+14 5.6100e+14
4339.1708 6.8475e+14 5.6099e+14
4339.1841 6.8475e+14 5.6097e+14
4339.1973 6.8475e+14 5.6096e+14
4339.2105 6.8475e+14 5.6094e+14
4339.2237 6.8475e+14 5.6093e+14
4339.2370 6.8475e+14 5.6092e+14
4339.2502 6.8475e+14 5.6090e+14
4339.2634 6.8475e+14 5.6089e+14
4339.2766 6.8475e+14 5.6088e+14
4339.2899 6.8475e+14 5.6086e+14
4339.3031 6.8475e+14 5.6085e+14
4339.3163 6.8475e+14 5.6084e+14
4339.3295 6.8475e+14 5.6082e+14
4339.3428 6.8475e+14 5.6081e+14
4339.3560 6.8475e+14 5.6080e+14
4339.3692 6.8475e+14 5.6078e+14
4339.3824 6.8475e+14 5.6077e+14
4339.3957 6.8475e+14 5.6076e+14
4339.4089 6.8475e+14 5.6075e+14
4339.4221 6.8474e+14 5.6074e+14
4339.4353 6.8474e+14 5.6072e+14
4339.4486 6.8474e+14 5.6071e+14
4339.4618 6.8474e+14 5.6070e+14
4339.4750 6.8474e+14 5.6069e+14
4339.4882 6.8474e+14 5.6068e+14
4339.5015 6.8474e+14 5.6067e+14
4339.5147 6.8474e+14 5.6066e+14
4339.5279 6.8474e+14 5.6065e+14
4339.5411 6.8474e+14 5.6063e+14
4339.5544 6.8474e+14 5.6062e+14
4339.5676 6.8474e+14 5.6061e+14
4339.5808 6.8474e+14 5.6060e+14
4339.5940 6.8474e+14 5.6059e+14
4339.6073 6.8474e+14 5.6058e+14
4339.6205 6.8474e+14 5.6057e+14
4339.6337 6.8474e+14 5.6056e+14
4339.6469 6.8474e+14 5.6055e+14
4339.6602 6.8474e+14 5.6054e+14
4339.6734 6.8474e+14 5.6054e+14
4339.6866 6.8474e+14 5.6053e+14
4339.6999 6.8474e+14 5.6052e+14
4339.7131 6.8473e+14 5.6051e+14
4339.7263 6.8473e+14 5.6050e+14
4339.7395 6.8473e+14 5.6049e+14
4339.7528 6.8473e+14 5.6048e+14
4339.7660 6.8473e+14 5.6047e+14
4339.7792 6.8473e+14 5.6047e+14
4339.7924 6.8473e+14 5.6046e+14
4339.8057 6.8473e+14 5.6045e+14
4339.8189 6.8473e+14 5.6044e+14
4339.8321 6.8473e+14 5.6043e+14
4339.8453 6.8473e+14 5.6043e+14
4339.8586 6.8473e+14 5.6042e+14
4339.8718 6.8473e+14 5.6041e+14
4339.8850 6.8473e+14 5.6041e+14
4339.8982 6.8473e+14 5.6040e+14
4339.9115 6.8473e+14 5.6039e+14
4339.9247 6.8473e+14 5.6039e+14
4339.9379 6.8473e+14 5.6038e+14
4339.9511 6.8473e+14 5.6037e+14
4339.9644 6.8473e+14 5.6037e+14
4339.9776 6.8473e+14 5.6036e+14
4339.9908 6.8473e+14 5.6035e+14
4340.0040 6.8472e+14 5.6035e+14
4340.0173 6.8472e+14 5.6034e+14
4340.0305 6.8472e+14 5.6034e+14
4340.0437 6.8472e+14 5.6033e+14
4340.0569 6.8472e+14 5.6033e+14
4340.0702 6.8472e+14 5.6032e+14
4340.0834 6.8472e+14 5.6032e+14
4340.0966 6.8472e+14 5.6031e+14
4340.1098 6.8472e+14 5.6031e+14
4340.1231 6.8472e+14 5.6030e+14
4340.1363 6.8472e+14 5.6030e+14
4340.1495 6.8472e+14 5.6029e+14
4340.1627 6.8472e+14 5.6029e+14
4340.1760 6.8472e+14 5.6029e+14
4340.1892 6.8472e+14 5.6028e+14
4340.2024 6.8472e+14 5.6028e+14
4340.2156 6.8472e+14 5.6028e+14
4340.2289 6.8472e+14 5.6027e+14
4340.2421 6.8472e+14 5.6027e+14
4340.2553 6.8472e+14 5.6027e+14
4340.2686 6.8472e+14 5.6026e+14
4340.2818 6.8471e+14 5.6026e+14
4340.2950 6.8471e+14 5.6026e+14
4340.3082 6.8471e+14 5.6026e+14
4340.3215 6.8471e+14 5.6025e+14
4340.3347 6.8471e+14 5.6025e+14
4340.3479 6.8471e+14 5.6025e+14
4340.3611 6.8471e+14 5.6025e+14
4340.3744 6.8471e+14 5.6024e+14
4340.3876 6.8471e+14 5.6024e+14
4340.4008 6.8471e+14 5.6024e+14
4340.4140 6.8471e+14 5.6024e+14
4340.4273 6.8471e+14 5.6024e+14
4340.4405 6.8471e+14 5.6024e+14
4340.4537 6.8471e+14 5.6024e+14
4340.4669 6.8471e+14 5.6024e+14
4340.4802 6.8471e+14 5.6024e+14
4340.4934 6.8471e+14 5.6023e+14
4340.5066 6.8471e+14 5.6023e+14
4340.5198 6.8471e+14 5.6023e+14
4340.5331 6.8471e+14 5.6023e+14
4340.5463 6.8471e+14 5.6023e+14
4340.5595 6.8471e+14 5.6023e+14
4340.5727 6.8470e+14 5.6023e+14
4340.5860 6.8470e+14 5.6024e+14
4340.5992 6.8470e+14 5.6024e+14
4340.6124 6.8470e+14 5.6024e+14
4340.6256 6.8470e+14 5.6024e+14
4340.6389 6.8470e+14 5.6024e+14
4340.6521 6.8470e+14 5.6024e+14
4340.6653 6.8470e+14 5.6024e+14
4340.6785 6.8470e+14 5.6024e+14
4340.6918 6.8470e+14 5.6024e+14
4340.7050 6.8470e+14 5.6025e+14
4340.7182 6.8470e+14 5.6025e+14
4340.7314 6.8470e+14 5.6025e+14
4340.7447 6.8470e+14 5.6025e+14
4340.7579 6.8470e+14 5.6025e+14
4340.7711 6.8470e+14 5.6026e+14
4340.7844 6.8470e+14 5.6026e+14
4340.7976 6.8470e+14 5.6026e+14
4340.8108 6.8470e+14 5.6027e+14
4340.8240 6.8470e+14 5.6027e+14
4340.8373 6.8470e+14 5.6027e+14
4340.8505 6.8469e+14 5.6027e+14
4340.8637 6.8469e+14 5.6028e+14
4340.8769 6.8469e+14 5.6028e+14
4340.8902 6.8469e+14 5.6029e+14
4340.9034 6.8469e+14 5.6029e+14
4340.9166 6.8469e+14 5.6029e+14
4340.9298 6.8469e+14 5.6030e+14
4340.9431 6.8469e+14 5.6030e+14
4340.9563 6.8469e+14 5.6031e+14
4340.9695 6.8469e+14 5.6031e+14
4340.9827 6.8469e+14 5.6032e+14
4340.9960 6.8469e+14 5.6032e+14
4341.0092 6.8469e+14 5.6033e+14
4341.0224 6.8469e+14 5.6033e+14
4341.0356 6.8469e+14 5.6034e+14
4341.0489 6.8469e+14 5.6034e+14
4341.0621 6.8469e+14 5.6035e+14
4341.0753 6.8469e+14 5.6035e+14
4341.0885 6.8469e+14 5.6036e+14
4341.1018 6.8469e+14 5.6036e+14
4341.1150 6.8469e+14 5.6037e+14
4341.1282 6.8469e+14 5.6038e+14
4341.1414 6.8468e+14 5.6038e+14
4341.1547 6.8468e+14 5.6039e+14
4341.1679 6.8468e+14 5.6040e+14
4341.1811 6.8468e+14 5.6040e+14
4341.1943 6.8468e+14 5.6041e+14
4341.2076 6.8468e+14 5.6042e+14
4341.2208 6.8468e+14 5.6042e+14
4341.2340 6.8468e+14 5.6043e+14
4341.2472 6.8468e+14 5.6044e+14
4341.2605 6.8468e+14 5.6045e+14
4341.2737 6.8468e+14 5.6046e+14
4341.2869 6.8468e+14 5.6046e+14
4341.3001 6.8468e+14 5.6047e+14
4341.3134 6.8468e+14 5.6048e+14
4341.3266 6.8468e+14 5.6049e+14
4341.3398 6.8468e+14 5.6050e+14
4341.3531 6.8468e+14 5.6051e+14
4341.3663 6.8468e+14 5.6051e+14
4341.3795 6.8468e+14 5.6052e+14
4341.3927 6.8468e+14 5.6053e+14
4341.4060 6.8468e+14 5.6054e+14
4341.4192 6.8467e+14 5.6055e+14
4341.4324 6.8467e+14 5.6056e+14
4341.4456 6.8467e+14 5.6057e+14
4341.4589 6.8467e+14 5.6058e+14
4341.4721 6.8467e+14 5.6059e+14
4341.4853 6.8467e+14 5.6060e+14
4341.4985 6.8467e+14 5.6061e+14
4341.5118 6.8467e+14 5.6062e+14
4341.5250 6.8467e+14 5.6063e+14
4341.5382 6.8467e+14 5.6064e+14
4341.5514 6.8467e+14 5.6065e+14
4341.5647 6.8467e+14 5.6066e+14
4341.5779 6.8467e+14 5.6067e+14
4341.5911 6.8467e+14 5.6069e+14
4341.6043 6.8467e+14 5.6070e+14
4341.6176 6.8467e+14 5.6071e+14
4341.6308 6.8467e+14 5.6072e+14
4341.6440 6.8467e+14 5.6073e+14
4341.6572 6.8467e+14 5.6074e+14
4341.6705 6.8467e+14 5.6076e+14
4341.6837 6.8467e+14 5.6077e+14
4341.6969 6.8467e+14 5.6078e+14
4341.7101 6.8466e+14 5.6079e+14
4341.7234 6.8466e+14 5.6080e+14
4341.7366 6.8466e+14 5.6082e+14
4341.7498 6.8466e+14 5.6083e+14
4341.7630 6.8466e+14 5.6084e+14
4341.7763 6.8466e+14 5.6086e+14
4341.7895 6.8466e+14 5.6087e+14
4341.8027 6.8466e+14 5.6088e+14
4341.8159 6.8466e+14 5.6090e+14
4341.8292 6.8466e+14 5.6091e+14
4341.8424 6.8466e+14 5.6092e+14
4341.8556 6.8466e+14 5.6094e+14
4341.8688 6.8466e+14 5.6095e+14
4341.8821 6.8466e+14 5.6097e+14
4341.8953 6.8466e+14 5.6098e+14
4341.9085 6.8466e+14 5.6100e+14
4341.9218 6.8466e+14 5.6101e+14
4341.9350 6.8466e+14 5.6102e+14
4341.9482 6.8466e+14 5.6104e+14
4341.9614 6.8466e+14 5.6105e+14
4341.9747 6.8466e+14 5.6107e+14
4341.9879 6.8465e+14 5.6109e+14
4342.0011 6.8465e+14 5.6110e+14
4342.0143 6.8465e+14 5.6112e+14
4342.0276 6.8465e+14 5.6113e+14
4342.0408 6.8465e+14 5.6115e+14
4342.0540 6.8465e+14 5.6116e+14
4342.0672 6.8465e+14 5.6118e+14
4342.0805 6.8465e+14 5.6120e+14
4342.0937 6.8465e+14 5.6121e+14
4342.1069 6.8465e+14 5.6123e+14
4342.1201 6.8465e+14 5.6125e+14
4342.1334 6.8465e+14 5.6126e+14
4342.1466 6.8465e+14 5.6128e+14
4342.1598 6.8465e+14 5.6130e+14
4342.1730 6.8465e+14 5.6131e+14
4342.1863 6.8465e+14 5.6133e+14
4342.1995 6.8465e+14 5.6135e+14
4342.2127 6.8465e+14 5.6137e+14
4342.2259 6.8465e+14 5.6138e+14
4342.2392 6.8465e+14 5.6140e+14
4342.2524 6.8465e+14 5.6142e+14
4342.2656 6.8464e+14 5.6144e+14
4342.2788 6.8464e+14 5.6146e+14
4342.2921 6.8464e+14 5.6147e+14
4342.3053 6.8464e+14 5.6149e+14
4342.3185 6.8464e+14 5.6151e+14
4342.3317 6.8464e+14 5.6153e+14
4342.3450 6.8464e+14 5.6155e+14
4342.3582 6.8464e+14 5.6157e+14
4342.3714 6.8464e+14 5.6159e+14
4342.3846 6.8464e+14 5.6161e+14
4342.3979 6.8464e+14 5.6163e+14
4342.4111 6.8464e+14 5.6165e+14
4342.4243 6.8464e+14 5.6167e+14
4342.4376 6.8464e+14 5.6169e+14
4342.4508 6.8464e+14 5.6171e+14
4342.4640 6.8464e+14 5.6173e+14
4342.4772 6.8464e+14 5.6175e+14
4342.4905 6.8464e+14 5.6177e+14
4342.5037 6.8464e+14 5.6179e+14
4342.5169 6.8464e+14 5.6181e+14
4342.5301 6.8464e+14 5.6183e+14
4342.5434 6.8464e+14 5.6185e+14
4342.5566 6.8463e+14 5.6187e+14
4342.5698 6.8463e+14 5.6189e+14
4342.5830 6.8463e+14 5.6191e+14
4342.5963 6.8463e+14 5.6194e+14
4342.6095 6.8463e+14 5.6196e+14
4342.6227 6.8463e+14 5.6198e+14
4342.6359 6.8463e+14 5.6200e+14
4342.6492 6.8463e+14 5.6202e+14
4342.6624 6.8463e+14 5.6204e+14
4342.6756 6.8463e+14 5.6207e+14
4342.6888 6.8463e+14 5.6209e+14
4342.7021 6.8463e+14 5.6211e+14
4342.7153 6.8463e+14 5.6213e+14
4342.7285 6.8463e+14 5.6216e+14
4342.7417 6.8463e+14 5.6218e+14
4342.7550 6.8463e+14 5.6220e+14
4342.7682 6.8463e+14 5.6223e+14
4342.7814 6.8463e+14 5.6225e+14
4342.7946 6.8463e+14 5.6227e+14
4342.8079 6.8463e+14 5.6230e+14
4342.8211 6.8463e+14 5.6232e+14
4342.8343 6.8462e+14 5.6234e+14
4342.8475 6.8462e+14 5.6237e+14
4342.8608 6.8462e+14 5.6239e+14
4342.8740 6.8462e+14 5.6242e+14
4342.8872 6.8462e+14 5.6244e+14
4342.9004 6.8462e+14 5.6246e+14
4342.9137 6.8462e+14 5.6249e+14
4342.9269 6.8462e+14 5.6251e+14
4342.9401 6.8462e+14 5.6254e+14
4342.9533 6.8462e+14 5.6256e+14
4342.9666 6.8462e+14 5.6259e+14
4342.9798 6.8462e+14 5.6261e+14
4342.9930 6.8462e+14 5.6264e+14
4343.0063 6.8462e+14 5.6266e+14
4343.0195 6.8462e+14 5.6269e+14
4343.0327 6.8462e+14 5.6272e+14
4343.0459 6.8462e+14 5.6274e+14
4343.0592 6.8462e+14 5.6277e+14
4343.0724 6.8462e+14 5.6279e+14
4343.0856 6.8462e+14 5.6282e+14
4343.0988 6.8462e+14 5.6285e+14
4343.1121 6.8461e+14 5.6287e+14
4343.1253 6.8461e+14 5.6290e+14
4343.1385 6.8461e+14 5.6293e+14
4343.1517 6.8461e+14 5.6295e+14
4343.1650 6.8461e+14 5.6298e+14
4343.1782 6.8461e+14 5.6301e+14
4343.1914 6.8461e+14 5.6303e+14
4343.2046 6.8461e+14 5.6306e+14
4343.2179 6.8461e+14 5.6309e+14
4343.2311 6.8461e+14 5.6312e+14
4343.2443 6.8461e+14 5.6314e+14
4343.2575 6.8461e+14 5.6317e+14
4343.2708 6.8461e+14 5.6320e+14
4343.2840 6.8461e+14 5.6323e+14
4343.2972 6.8461e+14 5.6326e+14
4343.3104 6.8461e+14 5.6328e+14
4343.3237 6.8461e+14 5.6331e+14
4343.3369 6.8461e+14 5.6334e+14
4343.3501 6.8461e+14 5.6337e+14
4343.3633 6.8461e+14 5.6340e+14
4343.3766 6.8461e+14 5.6343e+14
4343.3898 6.8461e+14 5.6346e+14
4343.4030 6.8460e+14 5.6348e+14
4343.4162 6.8460e+14 5.6351e+14
4343.4295 6.8460e+14 5.6354e+14
4343.4427 6.8460e+14 5.6357e+14
4343.4559 6.8460e+14 5.6360e+14
4343.4691 6.8460e+14 5.6363e+14
4343.4824 6.8460e+14 5.6366e+14
4343.4956 6.8460e+14 5.6369e+14
4343.5088 6.8460e+14 5.6372e+14
4343.5220 6.8460e+14 5.6375e+14
4343.5353 6.8460e+14 5.6378e+14
4343.5485 6.8460e+14 5.6381e+14
4343.5617 6.8460e+14 5.6384e+14
4343.5750 6.8460e+14 5.6387e+14
4343.5882 6.8460e+14 5.6391e+14
4343.6014 6.8460e+14 5.6394e+14
4343.6146 6.8460e+14 5.6397e+14
4343.6279 6.8460e+14 5.6400e+14
4343.6411 6.8460e+14 5.6403e+14
4343.6543 6.8460e+14 5.6406e+14
4343.6675 6.8460e+14 5.6409e+14
4343.6808 6.8459e+14 5.6412e+14
4343.6940 6.8459e+14 5.6416e+14
4343.7072 6.8459e+14 5.6419e+14
4343.7204 6.8459e+14 5.6422e+14
4343.7337 6.8459e+14 5.6425e+14
4343.7469 6.8459e+14 5.6428e+14
4343.7601 6.8459e+14 5.6432e+14
4343.7733 6.8459e+14 5.6435e+14
4343.7866 6.8459e+14 5.6438e+14
4343.7998 6.8459e+14 5.6441e+14
4343.8130 6.8459e+14 5.6445e+14
4343.8262 6.8459e+14 5.6448e+14
4343.8395 6.8459e+14 5.6451e+14
4343.8527 6.8459e+14 5.6455e+14
4343.8659 6.8459e+14 5.6458e+14
4343.8791 6.8459e+14 5.6461e+14
4343.8924 6.8459e+14 5.6465e+14
4343.9056 6.8459e+14 5.6468e+14
4343.9188 6.8459e+14 5.6471e+14
4343.9320 6.8459e+14 5.6475e+14
4343.9453 6.8459e+14 5.6478e+14
4343.9585 6.8458e+14 5.6481e+14
4343.9717 6.8458e+14 5.6485e+14
4343.9849 6.8458e+14 5.6488e+14
4343.9982 6.8458e+14 5.6492e+14
4344.0114 6.8458e+14 5.6495e+14
4344.0246 6.8458e+14 5.6499e+14
4344.0378 6.8458e+14 5.6502e+14
4344.0511 6.8458e+14 5.6506e+14
4344.0643 6.8458e+14 5.6509e+14
4344.0775 6.8458e+14 5.6513e+14
4344.0907 6.8458e+14 5.6516e+14
4344.1040 6.8458e+14 5.6520e+14
4344.1172 6.8458e+14 5.6523e+14
4344.1304 6.8458e+14 5.6527e+14
4344.1437 6.8458e+14 5.6530e+14
4344.1569 6.8458e+14 5.6534e+14
4344.1701 6.8458e+14 5.6537e+14
4344.1833 6.8458e+14 5.6541e+14
4344.1966 6.8458e+14 5.6545e+14
4344.2098 6.8458e+14 5.6548e+14
4344.2230 6.8458e+14 5.6552e+14
4344.2362 6.8457e+14 5.6555e+14
4344.2495 6.8457e+14 5.6559e+14
4344.2627 6.8457e+14 5.6563e+14
4344.2759 6.8457e+14 5.6566e+14
4344.2891 6.8457e+14 5.6570e+14
4344.3024 6.8457e+14 5.6574e+14
4344.3156 6.8457e+14 5.6577e+14
4344.3288 6.8457e+14 5.6581e+14
4344.3420 6.8457e+14 5.6585e+14
4344.3553 6.8457e+14 5.6589e+14
4344.3685 6.8457e+14 5.6592e+14
4344.3817 6.8457e+14 5.6596e+14
4344.3949 6.8457e+14 5.6600e+14
4344.4082 6.8457e+14 5.6604e+14
4344.4214 6.8457e+14 5.6607e+14
4344.4346 6.8457e+14 5.6611e+14
4344.4478 6.8457e+14 5.6615e+14
4344.4611 6.8457e+14 5.6619e+14
4344.4743 6.8457e+14 5.6623e+14
4344.4875 6.8457e+14 5.6626e+14
4344.5007 6.8457e+14 5.6630e+14
4344.5140 6.8456e+14 5.6634e+14
4344.5272 6.8456e+14 5.6638e+14
4344.5404 6.8456e+14 5.6642e+14
4344.5536 6.8456e+14 5.6646e+14
4344.5669 6.8456e+14 5.6650e+14
4344.5801 6.8456e+14 5.6654e+14
4344.5933 6.8456e+14 5.6657e+14
4344.6065 6.8456e+14 5.6661e+14
4344.6198 6.8456e+14 5.6665e+14
4344.6330 6.8456e+14 5.6669e+14
4344.6462 6.8456e+14 5.6673e+14
4344.6595 6.8456e+14 5.6677e+14
4344.6727 6.8456e+14 5.6681e+14
4344.6859 6.8456e+14 5.6685e+14
4344.6991 6.8456e+14 5.6689e+14
4344.7124 6.8456e+14 5.6693e+14
4344.7256 6.8456e+14 5.6697e+14
4344.7388 6.8456e+14 5.6701e+14
4344.7520 6.8456e+14 5.6705e+14
4344.7653 6.8456e+14 5.6709e+14
4344.7785 6.8456e+14 5.6713e+14
4344.7917 6.8456e+14 5.6717e+14
4344.8049 6.8455e+14 5.6721e+14
4344.8182 6.8455e+14 5.6725e+14
4344.8314 6.8455e+14 5.6730e+14
4344.8446 6.8455e+14 5.6734e+14
4344.8578 6.8455e+14 5.6738e+14
4344.8711 6.8455e+14 5.6742e+14
4344.8843 6.8455e+14 5.6746e+14
4344.8975 6.8455e+14 5.6750e+14
4344.9107 6.8455e+14 5.6754e+14
4344.9240 6.8455e+14 5.6758e+14
4344.9372 6.8455e+14 5.6763e+14
4344.9504 6.8455e+14 5.6767e+14
4344.9636 6.8455e+14 5.6771e+14
4344.9769 6.8455e+14 5.6775e+14
4344.9901 6.8455e+14 5.6779e+14
4345.0033 6.8455e+14 5.6784e+14
4345.0165 6.8455e+14 5.6788e+14
4345.0298 6.8455e+14 5.6792e+14
4345.0430 6.8455e+14 5.6796e+14
4345.0562 6.8455e+14 5.6801e+14
4345.0694 6.8455e+14 5.6805e+14
4345.0827 6.8454e+14 5.6809e+14
4345.0959 6.8454e+14 5.6813e+14
4345.1091 6.8454e+14 5.6818e+14
4345.1223 6.8454e+14 5.6822e+14
4345.1356 6.8454e+14 5.6826e+14
4345.1488 6.8454e+14 5.6831e+14
4345.1620 6.8454e+14 5.6835e+14
4345.1752 6.8454e+14 5.6839e+14
4345.1885 6.8454e+14 5.6844e+14
4345.2017 6.8454e+14 5.6848e+14
4345.2149 6.8454e+14 5.6852e+14
4345.2282 6.8454e+14 5.6857e+14
4345.2414 6.8454e+14 5.6861e+14
4345.2546 6.8454e+14 5.6866e+14
4345.2678 6.8454e+14 5.6870e+14
4345.2811 6.8454e+14 5.6874e+14
4345.2943 6.8454e+14 5.6879e+14
4345.3075 6.8454e+14 5.6883e+14
4345.3207 6.8454e+14 5.6888e+14
4345.3340 6.8454e+14 5.6892e+14
4345.3472 6.8454e+14 5.6896e+14
4345.3604 6.8453e+14 5.6901e+14
4345.3736 6.8453e+14 5.6905e+14
4345.3869 6.8453e+14 5.6910e+14
4345.4001 6.8453e+14 5.6914e+14
4345.4133 6.8453e+14 5.6919e+14
4345.4265 6.8453e+14 5.6923e+14
4345.4398 6.8453e+14 5.6928e+14
4345.4530 6.8453e+14 5.6932e+14
4345.4662 6.8453e+14 5.6937e+14
4345.4794 6.8453e+14 5.6942e+14
4345.4927 6.8453e+14 5.6946e+14
4345.5059 6.8453e+14 5.6951e+14
4345.5191 6.8453e+14 5.6955e+14
4345.5323 6.8453e+14 5.6960e+14
4345.5456 6.8453e+14 5.6964e+14
4345.5588 6.8453e+14 5.6969e+14
4345.5720 6.8453e+14 5.6974e+14
4345.5852 6.8453e+14 5.6978e+14
4345.5985 6.8453e+14 5.6983e+14
4345.6117 6.8453e+14 5.6987e+14
4345.6249 6.8453e+14 5.6992e+14
4345.6381 6.8452e+14 5.6997e+14
4345.6514 6.8452e+14 5.7001e+14
4345.6646 6.8452e+14 5.7006e+14
4345.6778 6.8452e+14 5.7011e+14
4345.6910 6.8452e+14 5.7015e+14
4345.7043 6.8452e+14 5.7020e+14
4345.7175 6.8452e+14 5.7025e+14
4345.7307 6.8452e+14 5.7029e+14
4345.7439 6.8452e+14 5.7034e+14
4345.7572 6.8452e+14 5.7039e+14
4345.7704 6.8452e+14 5.7043e+14
4345.7836 6.8452e+14 5.7048e+14
4345.7969 6.8452e+14 5.7053e+14
4345.8101 6.8452e+14 5.7058e+14
4345.8233 6.8452e+14 5.7062e+14
4345.8365 6.8452e+14 5.7067e+14
4345.8498 6.8452e+14 5.7072e+14
4345.8630 6.8452e+14 5.7077e+14
4345.8762 6.8452e+14 5.7082e+14
4345.8894 6.8452e+14 5.7086e+14
4345.9027 6.8452e+14 5.7091e+14
4345.9159 6.8451e+14 5.7096e+14
4345.9291 6.8451e+14 5.7101e+14
4345.9423 6.8451e+14 5.7106e+14
4345.9556 6.8451e+14 5.7110e+14
4345.9688 6.8451e+14 5.7115e+14
4345.9820 6.8451e+14 5.7120e+14
4345.9952 6.8451e+14 5.7125e+14
4346.0085 6.8451e+14 5.7130e+14
4346.0217 6.8451e+14 5.7135e+14
4346.0349 6.8451e+14 5.7140e+14
4346.0481 6.8451e+14 5.7144e+14
4346.0614 6.8451e+14 5.7149e+14
4346.0746 6.8451e+14 5.7154e+14
4346.0878 6.8451e+14 5.7159e+14
4346.1010 6.8451e+14 5.7164e+14
4346.1143 6.8451e+14 5.7169e+14
4346.1275 6.8451e+14 5.7174e+14
4346.1407 6.8451e+14 5.7179e+14
4346.1539 6.8451e+14 5.7184e+14
4346.1672 6.8451e+14 5.7189e+14
4346.1804 6.8451e+14 5.7194e+14
4346.1936 6.8450e+14 5.7199e+14
4346.2068 6.8450e+14 5.7204e+14
4346.2201 6.8450e+14 5.7209e+14
4346.2333 6.8450e+14 5.7214e+14
4346.2465 6.8450e+14 5.7219e+14
4346.2597 6.8450e+14 5.7224e+14
4346.2730 6.8450e+14 5.7229e+14
4346.2862 6.8450e+14 5.7234e+14
4346.2994 6.8450e+14 5.7239e+14
4346.3127 6.8450e+14 5.7244e+14
4346.3259 6.8450e+14 5.7249e+14
4346.3391 6.8450e+14 5.7254e+14
4346.3523 6.8450e+14 5.7259e+14
4346.3656 6.8450e+14 5.7264e+14
4346.3788 6.8450e+14 5.7269e+14
4346.3920 6.8450e+14 5.7274e+14
4346.4052 6.8450e+14 5.7279e+14
4346.4185 6.8450e+14 5.7284e+14
4346.4317 6.8450e+14 5.7289e+14
4346.4449 6.8450e+14 5.7294e+14
4346.4581 6.8450e+14 5.7299e+14
4346.4714 6.8449e+14 5.7305e+14
4346.4846 6.8449e+14 5.7310e+14
4346.4978 6.8449e+14 5.7315e+14
4346.5110 6.8449e+14 5.7320e+14
4346.5243 6.8449e+14 5.7325e+14
4346.5375 6.8449e+14 5.7330e+14
4346.5507 6.8449e+14 5.7335e+14
4346.5639 6.8449e+14 5.7340e+14
4346.5772 6.8449e+14 5.7346e+14
4346.5904 6.8449e+14 5.7351e+14
4346.6036 6.8449e+14 5.7356e+14
4346.6168 6.8449e+14 5.7361e+14
4346.6301 6.8449e+14 5.7366e+14
4346.6433 6.8449e+14 5.7372e+14
4346.6565 6.8449e+14 5.7377e+14
4346.6697 6.8449e+14 5.7382e+14
4346.6830 6.8449e+14 5.7387e+14
4346.6962 6.8449e+14 5.7392e+14
4346.7094 6.8449e+14 5.7398e+14
4346.7226 6.8449e+14 5.7403e+14
4346.7359 6.8449e+14 5.7408e+14
4346.7491 6.8448e+14 5.7413e+14
4346.7623 6.8448e+14 5.7419e+14
4346.7755 6.8448e+14 5.7424e+14
4346.7888 6.8448e+14 5.7429e+14
4346.8020 6.8448e+14 5.7434e+14
4346.8152 6.8448e+14 5.7440e+14
4346.8284 6.8448e+14 5.7445e+14
4346.8417 6.8448e+14 5.7450e+14
4346.8549 6.8448e+14 5.7456e+14
4346.8681 6.8448e+14 5.7461e+14
4346.8814 6.8448e+14 5.7466e+14
4346.8946 6.8448e+14 5.7471e+14
4346.9078 6.8448e+14 5.7477e+14
4346.9210 6.8448e+14 5.7482e+14
4346.9343 6.8448e+14 5.7487e+14
4346.9475 6.8448e+14 5.7493e+14
4346.9607 6.8448e+14 5.7498e+14
4346.9739 6.8448e+14 5.7503e+14
4346.9872 6.8448e+14 5.7509e+14
4347.0004 6.8448e+14 5.7514e+14
4347.0136 6.8448e+14 5.7519e+14
4347.0268 6.8447e+14 5.7525e+14
4347.0401 6.8447e+14 5.7530e+14
4347.0533 6.8447e+14 5.7536e+14
4347.0665 6.8447e+14 5.7541e+14
4347.0797 6.8447e+14 5.7546e+14
4347.0930 6.8447e+14 5.7552e+14
4347.1062 6.8447e+14 5.7557e+14
4347.1194 6.8447e+14 5.7563e+14
4347.1326 6.8447e+14 5.7568e+14
4347.1459 6.8447e+14 5.7573e+14
4347.1591 6.8447e+14 5.7579e+14
4347.1723 6.8447e+14 5.7584e+14
4347.1855 6.8447e+14 5.7590e+14
4347.1988 6.8447e+14 5.7595e+14
4347.2120 6.8447e+14 5.7601e+14
4347.2252 6.8447e+14 5.7606e+14
4347.2384 6.8447e+14 5.7611e+14
4347.2517 6.8447e+14 5.7617e+14
4347.2649 6.8447e+14 5.7622e+14
4347.2781 6.8447e+14 5.7628e+14
4347.2913 6.8447e+14 5.7633e+14
4347.3046 6.8446e+14 5.7639e+14
4347.3178 6.8446e+14 5.7644e+14
4347.3310 6.8446e+14 5.7650e+14
4347.3442 6.8446e+14 5.7655e+14
4347.3575 6.8446e+14 5.7661e+14
4347.3707 6.8446e+14 5.7666e+14
4347.3839 6.8446e+14 5.7672e+14
4347.3971 6.8446e+14 5.7677e+14
4347.4104 6.8446e+14 5.7683e+14
4347.4236 6.8446e+14 5.7688e+14
4347.4368 6.8446e+14 5.7694e+14
4347.4501 6.8446e+14 5.7699e+14
4347.4633 6.8446e+14 5.7705e+14
4347.4765 6.8446e+14 5.7711e+14
4347.4897 6.8446e+14 5.7716e+14
4347.5030 6.8446e+14 5.7722e+14
4347.5162 6.8446e+14 5.7727e+14
4347.5294 6.8446e+14 5.7733e+14
4347.5426 6.8446e+14 5.7738e+14
4347.5559 6.8446e+14 5.7744e+14
4347.5691 6.8445e+14 5.7750e+14
4347.5823 6.8445e+14 5.7755e+14
4347.5955 6.8445e+14 5.7761e+14
4347.6088 6.8445e+14 5.7766e+14
4347.6220 6.8445e+14 5.7772e+14
4347.6352 6.8445e+14 5.7777e+14
4347.6484 6.8445e+14 5.7783e+14
4347.6617 6.8445e+14 5.7789e+14
4347.6749 6.8445e+14 5.7794e+14
4347.6881 6.8445e+14 5.7800e+14
4347.7013 6.8445e+14 5.7806e+14
4347.7146 6.8445e+14 5.7811e+14
4347.7278 6.8445e+14 5.7817e+14
4347.7410 6.8445e+14 5.7822e+14
4347.7542 6.8445e+14 5.7828e+14
4347.7675 6.8445e+14 5.7834e+14
4347.7807 6.8445e+14 5.7839e+14
4347.7939 6.8445e+14 5.7845e+14
4347.8071 6.8445e+14 5.7851e+14
4347.8204 6.8445e+14 5.7856e+14
4347.8336 6.8445e+14 5.7862e+14
4347.8468 6.8444e+14 5.7868e+14
4347.8600 6.8444e+14 5.7873e+14
4347.8733 6.8444e+14 5.7879e+14
4347.8865 6.8444e+14 5.7885e+14
4347.8997 6.8444e+14 5.7890e+14
4347.9129 6.8444e+14 5.7896e+14
4347.9262 6.8444e+14 5.7902e+14
4347.9394 6.8444e+14 5.7907e+14
4347.9526 6.8444e+14 5.7913e+14
4347.9658 6.8444e+14 5.7919e+14
4347.9791 6.8444e+14 5.7925e+14
4347.9923 6.8444e+14 5.7930e+14
4348.0055 6.8444e+14 5.7936e+14
4348.0188 6.8444e+14 5.7942e+14
4348.0320 6.8444e+14 5.7947e+14
4348.0452 6.8444e+14 5.7953e+14
4348.0584 6.8444e+14 5.7959e+14
4348.0717 6.8444e+14 5.7965e+14
4348.0849 6.8444e+14 5.7970e+14
4348.0981 6.8444e+14 5.7976e+14
4348.1113 6.8444e+14 5.7982e+14
4348.1246 6.8443e+14 5.7988e+14
4348.1378 6.8443e+14 5.7993e+14
4348.1510 6.8443e+14 5.7999e+14
4348.1642 6.8443e+14 5.8005e+14
4348.1775 6.8443e+14 5.8011e+14
4348.1907 6.8443e+14 5.8016e+14
4348.2039 6.8443e+14 5.8022e+14
4348.2171 6.8443e+14 5.8028e+14
4348.2304 6.8443e+14 5.8034e+14
4348.2436 6.8443e+14 5.8040e+14
4348.2568 6.8443e+14 5.8045e+14
4348.2700 6.8443e+14 5.8051e+14
4348.2833 6.8443e+14 5.8057e+14
4348.2965 6.8443e+14 5.8063e+14
4348.3097 6.8443e+14 5.8069e+14
4348.3229 6.8443e+14 5.8074e+14
4348.3362 6.8443e+14 5.8080e+14
4348.3494 6.8443e+14 5.8086e+14
4348.3626 6.8443e+14 5.8092e+14
4348.3758 6.8443e+14 5.8098e+14
4348.3891 6.8443e+14 5.8103e+14
4348.4023 6.8442e+14 5.8109e+14
4348.4155 6.8442e+14 5.8115e+14
4348.4287 6.8442e+14 5.8121e+14
4348.4420 6.8442e+14 5.8127e+14
4348.4552 6.8442e+14 5.8133e+14
4348.4684 6.8442e+14 5.8138e+14
4348.4816 6.8442e+14 5.8144e+14
4348.4949 6.8442e+14 5.8150e+14
4348.5081 6.8442e+14 5.8156e+14
4348.5213 6.8442e+14 5.8162e+14
4348.5346 6.8442e+14 5.8168e+14
4348.5478 6.8442e+14 5.8173e+14
4348.5610 6.8442e+14 5.8179e+14
4348.5742 6.8442e+14 5.8185e+14
4348.5875 6.8442e+14 5.8191e+14
4348.6007 6.8442e+14 5.8197e+14
4348.6139 6.8442e+14 5.8203e+14
4348.6271 6.8442e+14 5.8209e+14
4348.6404 6.8442e+14 5.8215e+14
4348.6536 6.8442e+14 5.8220e+14
4348.6668 6.8442e+14 5.8226e+14
4348.6800 6.8441e+14 5.8232e+14
4348.6933 6.8441e+14 5.8238e+14
4348.7065 6.8441e+14 5.8244e+14
4348.7197 6.8441e+14 5.8250e+14
4348.7329 6.8441e+14 5.8256e+14
4348.7462 6.8441e+14 5.8262e+14
4348.7594 6.8441e+14 5.8268e+14
4348.7726 6.8441e+14 5.8273e+14
4348.7858 6.8441e+14 5.8279e+14
4348.7991 6.8441e+14 5.8285e+14
4348.8123 6.8441e+14 5.8291e+14
4348.8255 6.8441e+14 5.8297e+14
4348.8387 6.8441e+14 5.8303e+14
4348.8520 6.8441e+14 5.8309e+14
4348.8652 6.8441e+14 5.8315e+14
4348.8784 6.8441e+14 5.8321e+14
4348.8916 6.8441e+14 5.8327e+14
4348.9049 6.8441e+14 5.8333e+14
4348.9181 6.8441e+14 5.8339e+14
4348.9313 6.8441e+14 5.8345e+14
4348.9445 6.8441e+14 5.8350e+14
4348.9578 6.8440e+14 5.8356e+14
4348.9710 6.8440e+14 5.8362e+14
4348.9842 6.8440e+14 5.8368e+14
4348.9974 6.8440e+14 5.8374e+14
4349.0107 6.8440e+14 5.8380e+14
4349.0239 6.8440e+14 5.8386e+14
4349.0371 6.8440e+14 5.8392e+14
4349.0503 6.8440e+14 5.8398e+14
4349.0636 6.8440e+14 5.8404e+14
4349.0768 6.8440e+14 5.8410e+14
4349.0900 6.8440e+14 5.8416e+14
4349.1033 6.8440e+14 5.8422e+14
4349.1165 6.8440e+14 5.8428e+14
4349.1297 6.8440e+14 5.8434e+14
4349.1429 6.8440e+14 5.8440e+14
4349.1562 6.8440e+14 5.8446e+14
4349.1694 6.8440e+14 5.8452e+14
4349.1826 6.8440e+14 5.8458e+14
4349.1958 6.8440e+14 5.8464e+14
4349.2091 6.8440e+14 5.8470e+14
4349.2223 6.8439e+14 5.8476e+14
4349.2355 6.8439e+14 5.8482e+14
4349.2487 6.8439e+14 5.8488e+14
4349.2620 6.8439e+14 5.8494e+14
4349.2752 6.8439e+14 5.8500e+14
4349.2884 6.8439e+14 5.8506e+14
4349.3016 6.8439e+14 5.8512e+14
4349.3149 6.8439e+14 5.8518e+14
4349.3281 6.8439e+14 5.8523e+14
4349.3413 6.8439e+14 5.8529e+14
4349.3545 6.8439e+14 5.8535e+14
4349.3678 6.8439e+14 5.8541e+14
4349.3810 6.8439e+14 5.8547e+14
4349.3942 6.8439e+14 5.8553e+14
4349.4074 6.8439e+14 5.8559e+14
4349.4207 6.8439e+14 5.8565e+14
4349.4339 6.8439e+14 5.8571e+14
4349.4471 6.8439e+14 5.8578e+14
4349.4603 6.8439e+14 5.8584e+14
4349.4736 6.8439e+14 5.8590e+14
4349.4868 6.8439e+14 5.8596e+14
4349.5000 6.8438e+14 5.8602e+14
4349.5132 6.8438e+14 5.8608e+14
4349.5265 6.8438e+14 5.8614e+14
4349.5397 6.8438e+14 5.8620e+14
4349.5529 6.8438e+14 5.8626e+14
4349.5661 6.8438e+14 5.8632e+14
4349.5794 6.8438e+14 5.8638e+14
4349.5926 6.8438e+14 5.8644e+14
4349.6058 6.8438e+14 5.8650e+14
4349.6190 6.8438e+14 5.8656e+14
4349.6323 6.8438e+14 5.8662e+14
4349.6455 6.8438e+14 5.8668e+14
4349.6587 6.8438e+14 5.8674e+14
4349.6720 6.8438e+14 5.8680e+14
4349.6852 6.8438e+14 5.8686e+14
4349.6984 6.8438e+14 5.8692e+14
4349.7116 6.8438e+14 5.8698e+14
4349.7249 6.8438e+14 5.8704e+14
4349.7381 6.8438e+14 5.8710e+14
4349.7513 6.8438e+14 5.8716e+14
4349.7645 6.8438e+14 5.8722e+14
4349.7778 6.8437e+14 5.8728e+14
4349.7910 6.8437e+14 5.8734e+14
4349.8042 6.8437e+14 5.8740e+14
4349.8174 6.8437e+14 5.8746e+14
4349.8307 6.8437e+14 5.8752e+14
4349.8439 6.8437e+14 5.8758e+14
4349.8571 6.8437e+14 5.8764e+14
4349.8703 6.8437e+14 5.8770e+14
4349.8836 6.8437e+14 5.8777e+14
4349.8968 6.8437e+14 5.8783e+14
4349.9100 6.8437e+14 5.8789e+14
4349.9232 6.8437e+14 5.8795e+14
4349.9365 6.8437e+14 5.8801e+14
4349.9497 6.8437e+14 5.8807e+14
4349.9629 6.8437e+14 5.8813e+14
4349.9761 6.8437e+14 5.8819e+14
4349.9894 6.8437e+14 5.8825e+14
4350.0026 6.8437e+14 5.8831e+14
4350.0158 6.8437e+14 5.8837e+14
4350.0290 6.8437e+14 5.8843e+14
4350.0423 6.8436e+14 5.8849e+14
4350.0555 6.8436e+14 5.8855e+14
4350.0687 6.8436e+14 5.8861e+14
4350.0819 6.8436e+14 5.8867e+14
4350.0952 6.8436e+14 5.8873e+14
4350.1084 6.8436e+14 5.8879e+14
4350.1216 6.8436e+14 5.8886e+14
4350.1348 6.8436e+14 5.8892e+14
4350.1481 6.8436e+14 5.8898e+14
4350.1613 6.8436e+14 5.8904e+14
4350.1745 6.8436e+14 5.8910e+14
4350.1878 6.8436e+14 5.8916e+14
4350.2010 6.8436e+14 5.8922e+14
4350.2142 6.8436e+14 5.8928e+14
4350.2274 6.8436e+14 5.8934e+14
4350.2407 6.8436e+14 5.8940e+14
4350.2539 6.8436e+14 5.8946e+14
4350.2671 6.8436e+14 5.8952e+14
4350.2803 6.8436e+14 5.8958e+14
4350.2936 6.8436e+14 5.8964e+14
4350.3068 6.8436e+14 5.8970e+14
4350.3200 6.8435e+14 5.8976e+14
4350.3332 6.8435e+14 5.8983e+14
4350.3465 6.8435e+14 5.8989e+14
4350.3597 6.8435e+14 5.8995e+14
4350.3729 6.8435e+14 5.9001e+14
4350.3861 6.8435e+14 5.9007e+14
4350.3994 6.8435e+14 5.9013e+14
4350.4126 6.8435e+14 5.9019e+14
4350.4258 6.8435e+14 5.9025e+14
4350.4390 6.8435e+14 5.9031e+14
4350.4523 6.8435e+14 5.9037e+14
4350.4655 6.8435e+14 5.9043e+14
4350.4787 6.8435e+14 5.9049e+14
4350.4919 6.8435e+14 5.9055e+14
4350.5052 6.8435e+14 5.9061e+14
4350.5184 6.8435e+14 5.9068e+14
4350.5316 6.8435e+14 5.9074e+14
4350.5448 6.8435e+14 5.9080e+14
4350.5581 6.8435e+14 5.9086e+14
4350.5713 6.8435e+14 5.9092e+14
4350.5845 6.8435e+14 5.9098e+14
4350.5977 6.8434e+14 5.9104e+14
4350.6110 6.8434e+14 5.9110e+14
4350.6242 6.8434e+14 5.9116e+14
4350.6374 6.8434e+14 5.9122e+14
4350.6506 6.8434e+14 5.9128e+14
4350.6639 6.8434e+14 5.9134e+14
4350.6771 6.8434e+14 5.9140e+14
4350.6903 6.8434e+14 5.9147e+14
4350.7035 6.8434e+14 5.9153e+14
4350.7168 6.8434e+14 5.9159e+14
4350.7300 6.8434e+14 5.9165e+14
4350.7432 6.8434e+14 5.9171e+14
4350.7565 6.8434e+14 5.9177e+14
4350.7697 6.8434e+14 5.9183e+14
4350.7829 6.8434e+14 5.9189e+14
4350.7961 6.8434e+14 5.9195e+14
4350.8094 6.8434e+14 5.9201e+14
4350.8226 6.8434e+14 5.9207e+14
4350.8358 6.8434e+14 5.9213e+14
4350.8490 6.8434e+14 5.9219e+14
4350.8623 6.8433e+14 5.9225e+14
4350.8755 6.8433e+14 5.9231e+14
4350.8887 6.8433e+14 5.9238e+14
4350.9019 6.8433e+14 5.9244e+14
4350.9152 6.8433e+14 5.9250e+14
4350.9284 6.8433e+14 5.9256e+14
4350.9416 6.8433e+14 5.9262e+14
4350.9548 6.8433e+14 5.9268e+14
4350.9681 6.8433e+14 5.9274e+14
4350.9813 6.8433e+14 5.9280e+14
4350.9945 6.8433e+14 5.9286e+14
4351.0077 6.8433e+14 5.9292e+14
4351.0210 6.8433e+14 5.9298e+14
4351.0342 6.8433e+14 5.9304e+14
4351.0474 6.8433e+14 5.9310e+14
4351.0606 6.8433e+14 5.9316e+14
4351.0739 6.8433e+14 5.9322e+14
4351.0871 6.8433e+14 5.9329e+14
4351.1003 6.8433e+14 5.9335e+14
4351.1135 6.8433e+14 5.9341e+14
4351.1268 6.8433e+14 5.9347e+14
4351.1400 6.8432e+14 5.9353e+14
4351.1532 6.8432e+14 5.9359e+14
4351.1664 6.8432e+14 5.9365e+14
4351.1797 6.8432e+14 5.9371e+14
4351.1929 6.8432e+14 5.9377e+14
4351.2061 6.8432e+14 5.9383e+14
4351.2193 6.8432e+14 5.9389e+14
4351.2326 6.8432e+14 5.9395e+14
4351.2458 6.8432e+14 5.9401e+14
4351.2590 6.8432e+14 5.9407e+14
4351.2722 6.8432e+14 5.9413e+14
4351.2855 6.8432e+14 5.9419e+14
4351.2987 6.8432e+14 5.9425e+14
4351.3119 6.8432e+14 5.9432e+14
4351.3252 6.8432e+14 5.9438e+14
4351.3384 6.8432e+14 5.9444e+14
4351.3516 6.8432e+14 5.9450e+14
4351.3648 6.8432e+14 5.9456e+14
4351.3781 6.8432e+14 5.9462e+14
4351.3913 6.8432e+14 5.9468e+14
4351.4045 6.8431e+14 5.9474e+14
4351.4177 6.8431e+14 5.9480e+14
4351.4310 6.8431e+14 5.9486e+14
4351.4442 6.8431e+14 5.9492e+14
4351.4574 6.8431e+14 5.9498e+14
4351.4706 6.8431e+14 5.9504e+14
4351.4839 6.8431e+14 5.9510e+14
4351.4971 6.8431e+14 5.9516e+14
4351.5103 6.8431e+14 5.9522e+14
4351.5235 6.8431e+14 5.9528e+14
4351.5368 6.8431e+14 5.9534e+14
4351.5500 6.8431e+14 5.9540e+14
4351.5632 6.8431e+14 5.9546e+14
4351.5764 6.8431e+14 5.9552e+14
4351.5897 6.8431e+14 5.9558e+14
4351.6029 6.8431e+14 5.9564e+14
4351.6161 6.8431e+14 5.9570e+14
4351.6293 6.8431e+14 5.9576e+14
4351.6426 6.8431e+14 5.9583e+14
4351.6558 6.8431e+14 5.9589e+14
4351.6690 6.8431e+14 5.9595e+14
4351.6822 6.8430e+14 5.9601e+14
4351.6955 6.8430e+14 5.9607e+14
4351.7087 6.8430e+14 5.9613e+14
4351.7219 6.8430e+14 5.9619e+14
4351.7351 6.8430e+14 5.9625e+14
4351.7484 6.8430e+14 5.9631e+14
4351.7616 6.8430e+14 5.9637e+14
4351.7748 6.8430e+14 5.9643e+14
4351.7880 6.8430e+14 5.9649e+14
4351.8013 6.8430e+14 5.9655e+14
4351.8145 6.8430e+14 5.9661e+14
4351.8277 6.8430e+14 5.9667e+14
4351.8409 6.8430e+14 5.9673e+14
4351.8542 6.8430e+14 5.9679e+14
4351.8674 6.8430e+14 5.9685e+14
4351.8806 6.8430e+14 5.9691e+14
4351.8939 6.8430e+14 5.9697e+14
4351.9071 6.8430e+14 5.9703e+14
4351.9203 6.8430e+14 5.9709e+14
4351.9335 6.8430e+14 5.9715e+14
4351.9468 6.8429e+14 5.9721e+14
4351.9600 6.8429e+14 5.9727e+14
4351.9732 6.8429e+14 5.9733e+14
4351.9864 6.8429e+14 5.9739e+14
4351.9997 6.8429e+14 5.9745e+14
4352.0129 6.8429e+14 5.9751e+14
4352.0261 6.8429e+14 5.9757e+14
4352.0393 6.8429e+14 5.9763e+14
4352.0526 6.8429e+14 5.9769e+14
4352.0658 6.8429e+14 5.9775e+14
4352.0790 6.8429e+14 5.9781e+14
4352.0922 6.8429e+14 5.9787e+14
4352.1055 6.8429e+14 5.9793e+14
4352.1187 6.8429e+14 5.9799e+14
4352.1319 6.8429e+14 5.9805e+14
4352.1451 6.8429e+14 5.9811e+14
4352.1584 6.8429e+14 5.9817e+14
4352.1716 6.8429e+14 5.9823e+14
4352.1848 6.8429e+14 5.9829e+14
4352.1980 6.8429e+14 5.9834e+14
4352.2113 6.8429e+14 5.9840e+14
4352.2245 6.8428e+14 5.9846e+14
4352.2377 6.8428e+14 5.9852e+14
4352.2509 6.8428e+14 5.9858e+14
4352.2642 6.8428e+14 5.9864e+14
4352.2774 6.8428e+14 5.9870e+14
4352.2906 6.8428e+14 5.9876e+14
4352.3038 6.8428e+14 5.9882e+14
4352.3171 6.8428e+14 5.9888e+14
4352.3303 6.8428e+14 5.9894e+14
4352.3435 6.8428e+14 5.9900e+14
4352.3567 6.8428e+14 5.9906e+14
4352.3700 6.8428e+14 5.9912e+14
4352.3832 6.8428e+14 5.9918e+14
4352.3964 6.8428e+14 5.9924e+14
4352.4097 6.8428e+14 5.9930e+14
4352.4229 6.8428e+14 5.9936e+14
4352.4361 6.8428e+14 5.9942e+14
4352.4493 6.8428e+14 5.9948e+14
4352.4626 6.8428e+14 5.9954e+14
4352.4758 6.8428e+14 5.9959e+14
4352.4890 6.8427e+14 5.9965e+14
4352.5022 6.8427e+14 5.9971e+14
4352.5155 6.8427e+14 5.9977e+14
4352.5287 6.8427e+14 5.9983e+14
4352.5419 6.8427e+14 5.9989e+14
4352.5551 6.8427e+14 5.9995e+14
4352.5684 6.8427e+14 6.0001e+14
4352.5816 6.8427e+14 6.0007e+14
4352.5948 6.8427e+14 6.0013e+14
4352.6080 6.8427e+14 6.0019e+14
4352.6213 6.8427e+14 6.0025e+14
4352.6345 6.8427e+14 6.0031e+14
4352.6477 6.8427e+14 6.0036e+14
4352.6609 6.8427e+14 6.0042e+14
4352.6742 6.8427e+14 6.0048e+14
4352.6874 6.8427e+14 6.0054e+14
4352.7006 6.8427e+14 6.0060e+14
4352.7138 6.8427e+14 6.0066e+14
4352.7271 6.8427e+14 6.0072e+14
4352.7403 6.8427e+14 6.0078e+14
4352.7535 6.8427e+14 6.0084e+14
4352.7667 6.8426e+14 6.0090e+14
4352.7800 6.8426e+14 6.0095e+14
4352.7932 6.8426e+14 6.0101e+14
4352.8064 6.8426e+14 6.0107e+14
4352.8196 6.8426e+14 6.0113e+14
4352.8329 6.8426e+14 6.0119e+14
4352.8461 6.8426e+14 6.0125e+14
4352.8593 6.8426e+14 6.0131e+14
4352.8725 6.8426e+14 6.0137e+14
4352.8858 6.8426e+14 6.0142e+14
4352.8990 6.8426e+14 6.0148e+14
4352.9122 6.8426e+14 6.0154e+14
4352.9254 6.8426e+14 6.0160e+14
4352.9387 6.8426e+14 6.0166e+14
4352.9519 6.8426e+14 6.0172e+14
4352.9651 6.8426e+14 6.0178e+14
4352.9784 6.8426e+14 6.0184e+14
4352.9916 6.8426e+14 6.0189e+14
4353.0048 6.8426e+14 6.0195e+14
4353.0180 6.8426e+14 6.0201e+14
4353.0313 6.8425e+14 6.0207e+14
4353.0445 6.8425e+14 6.0213e+14
4353.0577 6.8425e+14 6.0219e+14
4353.0709 6.8425e+14 6.0224e+14
4353.0842 6.8425e+14 6.0230e+14
4353.0974 6.8425e+14 6.0236e+14
4353.1106 6.8425e+14 6.0242e+14
4353.1238 6.8425e+14 6.0248e+14
4353.1371 6.8425e+14 6.0254e+14
4353.1503 6.8425e+14 6.0259e+14
4353.1635 6.8425e+14 6.0265e+14
4353.1767 6.8425e+14 6.0271e+14
4353.1900 6.8425e+14 6.0277e+14
4353.2032 6.8425e+14 6.0283e+14
4353.2164 6.8425e+14 6.0289e+14
4353.2296 6.8425e+14 6.0294e+14
4353.2429 6.8425e+14 6.0300e+14
4353.2561 6.8425e+14 6.0306e+14
4353.2693 6.8425e+14 6.0312e+14
4353.2825 6.8425e+14 6.0318e+14
4353.2958 6.8424e+14 6.0323e+14
4353.3090 6.8424e+14 6.0329e+14
4353.3222 6.8424e+14 6.0335e+14
4353.3354 6.8424e+14 6.0341e+14
4353.3487 6.8424e+14 6.0347e+14
4353.3619 6.8424e+14 6.0352e+14
4353.3751 6.8424e+14 6.0358e+14
4353.3883 6.8424e+14 6.0364e+14
4353.4016 6.8424e+14 6.0370e+14
4353.4148 6.8424e+14 6.0376e+14
4353.4280 6.8424e+14 6.0381e+14
4353.4412 6.8424e+14 6.0387e+14
4353.4545 6.8424e+14 6.0393e+14
4353.4677 6.8424e+14 6.0399e+14
4353.4809 6.8424e+14 6.0404e+14
4353.4941 6.8424e+14 6.0410e+14
4353.5074 6.8424e+14 6.0416e+14
4353.5206 6.8424e+14 6.0422e+14
4353.5338 6.8424e+14 6.0427e+14
4353.5471 6.8424e+14 6.0433e+14
4353.5603 6.8424e+14 6.0439e+14
4353.5735 6.8423e+14 6.0445e+14
4353.5867 6.8423e+14 6.0450e+14
4353.6000 6.8423e+14 6.0456e+14
4353.6132 6.8423e+14 6.0462e+14
4353.6264 6.8423e+14 6.0468e+14
4353.6396 6.8423e+14 6.0473e+14
4353.6529 6.8423e+14 6.0479e+14
4353.6661 6.8423e+14 6.0485e+14
4353.6793 6.8423e+14 6.0491e+14
4353.6925 6.8423e+14 6.0496e+14
4353.7058 6.8423e+14 6.0502e+14
4353.7190 6.8423e+14 6.0508e+14
